File: literature/svgdigitizer/abe_2019_electro-oxidation_315/abe_2019_electro-oxidation_315_f3b1_black.csv
E,j
0.0782792,33.5623
0.0782792,33.5624
0.0921269,40.4644
0.0978889,44.2601
0.109815,53.877
0.115801,62.1881
0.121154,69.8665
0.125557,76.6169
0.131074,81.5521
0.137591,82.3512
0.144008,78.1284
0.151456,70.4024
0.160113,62.7604
0.167356,56.9758
0.174687,52.9635
0.1921,48.7361
0.207316,45.7756
0.219467,41.7614
0.23308,36.8603
0.24378,33.9439
0.26319,30.5175
0.277904,26.5444
0.291827,21.812
0.305165,17.4175
0.325031,14.0752
0.349855,10.4777
0.366433,7.64326
0.389475,4.55291
0.417444,3.61272
0.448172,3.64205
0.479826,4.09299
0.511797,4.88139
0.540745,5.46006
0.566352,5.49154
0.595273,5.5216
0.621782,5.51048
0.651481,6.04664
0.683319,7.17271
0.707914,8.04863
0.742345,9.84883
0.762591,11.1064
0.788638,13.9229
0.801875,16.5761
0.824314,22.5592
0.835647,26.3104
0.847747,30.3567
0.859314,32.7573
0.875688,34.9027
0.883192,37.3894
0.894528,44.2213
0.902198,50.0419
0.909471,56.9598
0.917917,60.2058
0.927619,58.4293
0.936161,54.5431
0.945047,51.5009
0.95359,47.6148
0.95372,41.158
0.954119,24.9525
0.948425,7.39911
0.9468,-1.04047
0.940389,-8.80285
0.925627,-14.8736
0.909778,-18.5807
0.881711,-25.6587
0.867223,-29.2398
0.851464,-34.1707
0.831514,-38.5513
0.800926,-38.7917
0.77782,-33.971
0.754101,-26.3226
0.725938,-20.1916
0.696129,-16.8874
0.666177,-13.4144
0.640094,-10.9135
0.602697,-8.74559
0.56195,-7.29365
0.517731,-6.00907
0.488394,-5.32151
0.453196,-4.37832
0.402002,-4.01924
0.366332,-6.49418
0.344201,-9.31238
0.29927,-13.2604
0.274672,-17.217
0.254084,-22.3148
0.240548,-27.9641
0.219419,-40.911
0.209201,-46.4773
0.193619,-53.8982
0.18484,-57.777
0.179851,-58.1547
0.169599,-55.323
0.16249,-55.9108
0.155492,-60.339
0.142317,-70.8416
0.133056,-81.3881
0.128035,-85.4373
0.122687,-86.9543
0.113712,-79.6497
0.109179,-70.8699
0.103372,-60.4437
0.097156,-52.1697
0.0904067,-45.5413
0.0811629,-43.6383
0.0751125,-43.1994