File: literature/svgdigitizer/abe_2019_electro-oxidation_315/abe_2019_electro-oxidation_315_f4b1_black.csv
E,j
0.0717874,28.0323
0.0797782,31.4008
0.103736,28.3071
0.129685,21.5622
0.166617,14.2536
0.188578,11.4411
0.202556,12.0002
0.223525,15.3663
0.2435,22.1025
0.263484,36.7022
0.273478,45.1254
0.281735,51.1773
0.294458,58.0398
0.302448,60.5659
0.314539,60.0838
0.325377,54.6952
0.337472,46.3615
0.349139,38.9406
0.364205,32.7087
0.376804,28.6927
0.398583,24.4839
0.424646,19.3655
0.45115,12.5152
0.476106,9.14049
0.502063,9.13562
0.53637,10.5373
0.573949,11.3688
0.605896,11.2887
0.663731,9.26128
0.703817,8.27868
0.767341,10.6968
0.797591,18.0669
0.815364,26.668
0.832915,35.5773
0.846535,38.7654
0.871936,36.4828
0.907436,39.1089
0.927129,41.2778
0.941121,42.3985
0.947819,43.0564
0.947335,7.92874
0.93933,-7.79652
0.91536,-15.6359
0.893655,-19.8366
0.865431,-25.1944
0.833032,-31.5189
0.799072,-33.4003
0.762218,-30.8425
0.738538,-27.3432
0.718049,-22.9279
0.694717,-18.7032
0.66922,-15.6561
0.646799,-15.0433
0.62184,-15.6745
0.588892,-16.4367
0.547197,-16.226
0.513018,-14.7374
0.481986,-14.1622
0.448037,-18.0875
0.430144,-22.5852
0.412348,-27.867
0.389115,-34.318
0.363872,-39.9066
0.348253,-44.7558
0.336096,-53.4594
0.322273,-63.8477
0.312369,-66.7791
0.303301,-66.0908
0.288334,-59.348
0.27237,-50.0774
0.255757,-39.8394
0.238448,-30.4127
0.211695,-22.7198
0.188,-20.8509
0.165756,-23.1168
0.143496,-27.5358
0.112647,-35.7249
0.0952936,-42.0014
0.0847632,-47.1637
0.0789628,-50.8564
0.0716952,-52.2865
0.0716952,-52.2865