File: literature/svgdigitizer/abe_2019_electro-oxidation_315/abe_2019_electro-oxidation_315_f2c1_black.csv
E,j
0.0704306,1.85606
0.0790154,6.46336
0.0846074,7.87858
0.0932077,10.4256
0.100512,13.3359
0.106519,16.8923
0.109935,21.0944
0.112711,24.5289
0.121065,31.1964
0.124492,33.8634
0.127935,34.5106
0.13182,33.6631
0.137676,28.6956
0.143102,23.6067
0.149823,18.0738
0.15762,12.8642
0.166918,8.66504
0.175128,5.75829
0.18484,3.70025
0.199725,1.56258
0.21525,0.273424
0.233786,-0.247474
0.250156,0.645042
0.258978,2.34377
0.269523,4.16407
0.279648,4.65116
0.291087,2.22994
0.3075,-2.61402
0.318729,-5.68165
0.334489,-9.67739
0.348085,-12.3001
0.361028,-14.115
0.386465,-15.4019
0.404999,-15.6804
0.441199,-15.5105
0.473951,-15.1798
0.507565,-14.8489
0.570269,-14.4709
0.61013,-14.0174
0.647185,-12.8778
0.694571,-9.95824
0.720408,-7.20527
0.749684,-3.15878
0.760864,0.237204
0.766866,4.43994
0.772869,8.48108
0.778013,12.1988
0.783171,13.9775
0.7892,14.6253
0.797828,13.4961
0.806904,10.1452
0.815331,6.99612
0.822673,4.97792
0.83195,3.56614
0.846171,3.6502
0.862539,4.8659
0.882347,7.05191
0.898708,9.27754
0.912492,10.1291
0.931449,11.0222
0.94588,11.8738
0.947652,5.49142
0.94707,-3.11343
0.943697,-12.9712
0.937483,-17.6588
0.92738,-20.9737
0.912746,-23.5221
0.894658,-25.2634
0.874416,-27.1263
0.845353,-30.8092
0.820605,-35.1374
0.806193,-38.5341
0.792428,-42.0115
0.779732,-44.4383
0.767894,-46.2589
0.744398,-45.2543
0.715283,-41.9484
0.702768,-39.7698
0.688521,-36.4201
0.674912,-32.0199
0.654187,-27.0153
0.628742,-24.6377
0.581535,-22.5479
0.54467,-20.3345
0.505663,-19.8991
0.469027,-19.4631
0.432606,-18.9867
0.375505,-19.4038
0.349014,-21.1874
0.325341,-25.273
0.311145,-28.7908
0.298889,-32.3891
0.286202,-35.9066
0.275007,-37.2827
0.262286,-36.316
0.243524,-34.3409
0.225857,-34.7085
0.202171,-37.1378
0.186249,-40.2521
0.168418,-47.447
0.155744,-52.742
0.14072,-60.8249
0.134718,-64.9065
0.132797,-67.4116
0.127214,-70.0387
0.120957,-69.0302
0.115974,-65.4764
0.10882,-59.7012
0.101878,-53.6027
0.0932294,-49.6861
0.0845916,-47.2642
0.0772627,-46.9427
0.0692916,-47.1869