File: literature/svgdigitizer/abe_2019_electro-oxidation_315/abe_2019_electro-oxidation_315_f2b1_black.csv
E,j
0.0703915,32.4707
0.0928173,35.9573
0.106942,38.842
0.114839,43.297
0.119948,47.8741
0.125264,53.5359
0.129335,53.7747
0.13429,50.3971
0.13904,45.7542
0.145074,41.4119
0.156246,37.7899
0.178989,34.6434
0.196786,33.6692
0.21286,33.7205
0.234087,32.7443
0.246309,32.0143
0.259155,33.9356
0.268558,37.5461
0.274547,39.2903
0.280341,38.2626
0.284654,34.8252
0.289838,29.4589
0.296094,24.0317
0.307506,17.095
0.319543,12.448
0.343588,7.13135
0.365684,4.52765
0.404921,2.57721
0.440289,2.25603
0.487442,2.22957
0.549163,3.15914
0.586019,4.34373
0.617728,6.01329
0.644491,9.79485
0.664826,13.339
0.684515,17.3656
0.704854,20.307
0.730762,23.7877
0.748108,25.8872
0.762225,29.7361
0.773555,33.6468
0.784674,37.1961
0.792158,39.5422
0.801804,39.4162
0.821359,32.5956
0.8319,27.4673
0.842864,23.0619
0.85038,21.069
0.861967,19.3752
0.890687,19.4193
0.918551,19.3434
0.928622,19.7596
0.938683,21.3208
0.945109,21.9198
0.947751,12.5173
0.946507,6.91353
0.94185,-0.857798
0.927951,-5.18894
0.902037,-7.94651
0.875483,-10.9448
0.85943,-14.0092
0.844675,-18.4603
0.83143,-24.2382
0.819029,-28.3291
0.808758,-30.6736
0.793339,-32.2921
0.782615,-31.3821
0.760983,-33.4189
0.741488,-34.6735
0.71169,-33.9336
0.6926,-31.9945
0.673486,-26.8011
0.659079,-20.6462
0.640599,-14.2479
0.623427,-10.8636
0.56768,-8.12045
0.509787,-5.07478
0.481279,-4.75748
0.445698,-4.5567
0.39276,-4.82832
0.347131,-7.99667
0.326797,-11.7818
0.306898,-16.2301
0.290233,-23.3318
0.280851,-29.7747
0.269514,-32.902
0.241219,-32.4643
0.207378,-35.5187
0.187053,-40.4489
0.173174,-47.5522
0.166332,-49.6575
0.160106,-48.268
0.151289,-44.4062
0.144857,-44.1012
0.139089,-46.629
0.130347,-52.771
0.125227,-55.9018
0.11749,-53.1253
0.110812,-48.6018
0.0985584,-43.7739
0.0817746,-42.1223
0.0759956,-43.1888
0.073159,-43.6391
0.0693021,-36.3557