File: literature/rawdata/engstfeld_2018_polycrystalline_17743/1708030001Cu100_UHV_C01_cycle36.csv
E,<I>,I (raw),j,j
V vs. RHE,mA,\g(m)A,\g(m)A/cm\+(-2),mA/cm\+(-2)
-0.195493,-0.00235679,-2.35679,-15.4998,-0.0154998
-0.198693,-0.00119681,-1.19681,-7.87098,-0.00787098
-0.194413,0.000278896,0.278896,1.8342,0.0018342
-0.189185,0.000448306,0.448306,2.94835,0.00294835
-0.184244,0.000767315,0.767315,5.04636,0.00504636
-0.179231,0.0010776,1.0776,7.08699,0.00708699
-0.174249,0.00137804,1.37804,9.06291,0.00906291
-0.169296,0.00171885,1.71885,11.3043,0.0113043
-0.164289,0.00208075,2.08075,13.6844,0.0136844
-0.159313,0.00241134,2.41134,15.8585,0.0158585
-0.1542953,0.00268145,2.68145,17.6349,0.0176349
-0.1493233,0.00292633,2.92633,19.2455,0.0192455
-0.144273,0.00306336,3.06336,20.1467,0.0201467
-0.139343,0.00310943,3.10943,20.4496,0.0204496
-0.134336,0.00311903,3.11903,20.5127,0.0205127
-0.1292838,0.00303795,3.03795,19.9796,0.0199796
-0.124299,0.0029411,2.9411,19.3426,0.0193426
-0.119317,0.00280336,2.80336,18.4367,0.0184367
-0.114295,0.00263827,2.63827,17.351,0.017351
-0.109278,0.00243765,2.43765,16.0316,0.0160316
-0.1043487,0.00221634,2.21634,14.5761,0.0145761
-0.0993228,0.00202577,2.02577,13.3228,0.0133228
-0.094305,0.00184845,1.84845,12.1566,0.0121566
-0.0893447,0.00168445,1.68445,11.0781,0.0110781
-0.0843421,0.00151184,1.51184,9.94282,0.00994282
-0.079344,0.00136107,1.36107,8.95128,0.00895128
-0.07435441,0.00124624,1.24624,8.19608,0.00819608
-0.0693517,0.00113676,1.13676,7.4761,0.0074761
-0.0643508,0.00104262,1.04262,6.85694,0.00685694
-0.0593544,0.000960327,0.960327,6.31574,0.00631574
-0.0543616,0.000911318,0.911318,5.99342,0.00599342
-0.0493264,0.000837964,0.837964,5.511,0.005511
-0.0443756,0.00079052,0.79052,5.19897,0.00519897
-0.039389,0.000723078,0.723078,4.75543,0.00475543
-0.0343985,0.000690566,0.690566,4.54161,0.00454161
-0.0294034,0.000660598,0.660598,4.34452,0.00434452
-0.0243556,0.000598144,0.598144,3.93378,0.00393378
-0.0193571,0.000553749,0.553749,3.64182,0.00364182
-0.0143798,0.000507843,0.507843,3.33991,0.00333991
-0.00934396,0.000483631,0.483631,3.18067,0.00318067
-0.00441017,0.000468912,0.468912,3.08387,0.00308387
0.000615305,0.000456819,0.456819,3.00434,0.00300434
0.00555037,0.000434648,0.434648,2.85853,0.00285853
0.0106187,0.000411178,0.411178,2.70417,0.00270417
0.0155881,0.000390758,0.390758,2.56988,0.00256988
0.02057096,0.000392004,0.392004,2.57807,0.00257807
0.0255767,0.000415182,0.415182,2.73051,0.00273051
0.0305869,0.000401445,0.401445,2.64016,0.00264016
0.0355822,0.000423854,0.423854,2.78754,0.00278754
0.0405916,0.000439607,0.439607,2.89114,0.00289114
0.0455203,0.000480581,0.480581,3.16061,0.00316061
0.0505782,0.0004626,0.4626,3.04236,0.00304236
0.055599,0.000415103,0.415103,2.72999,0.00272999
0.0605863,0.000390121,0.390121,2.56569,0.00256569
0.0655744,0.000387243,0.387243,2.54676,0.00254676
0.0705529,0.00036201,0.36201,2.38081,0.00238081
0.075579,0.000368375,0.368375,2.42267,0.00242267
0.0805472,0.000347769,0.347769,2.28715,0.00228715
0.0855317,0.000324352,0.324352,2.13315,0.00213315
0.0905638,0.000325704,0.325704,2.14204,0.00214204
0.0955551,0.000329549,0.329549,2.16733,0.00216733
0.10056,0.000362222,0.362222,2.38221,0.00238221
0.105519,0.000319366,0.319366,2.10036,0.00210036
0.110518,0.000311489,0.311489,2.04856,0.00204856
0.115511,0.00031552,0.31552,2.07507,0.00207507
0.120508,0.000286057,0.286057,1.8813,0.0018813
0.125488,0.000325333,0.325333,2.1396,0.0021396
0.13049,0.000312709,0.312709,2.05658,0.00205658
0.135525,0.000286985,0.286985,1.8874,0.0018874
0.140519,0.000270198,0.270198,1.777,0.001777
0.145449,0.000289584,0.289584,1.90449,0.00190449
0.1504267,0.000277199,0.277199,1.82304,0.00182304
0.1554857,0.000266379,0.266379,1.75188,0.00175188
0.160528,0.000292925,0.292925,1.92647,0.00192647
0.165473,0.000268527,0.268527,1.76601,0.00176601
0.170466,0.000299555,0.299555,1.97007,0.00197007
0.175444,0.000257495,0.257495,1.69345,0.00169345
0.180448,0.000251316,0.251316,1.65281,0.00165281
0.185436,0.000245959,0.245959,1.61758,0.00161758
0.190462,0.000239704,0.239704,1.57645,0.00157645
0.195454,0.000234051,0.234051,1.53927,0.00153927
0.198995,-2.23705e-05,-0.0223705,-0.147123,-0.000147123
0.196173,-0.000709874,-0.709874,-4.66859,-0.00466859
0.190797,-0.000693671,-0.693671,-4.56203,-0.00456203
0.185831,-0.000713932,-0.713932,-4.69528,-0.00469528
0.180867,-0.000729181,-0.729181,-4.79557,-0.00479557
0.175908,-0.000748143,-0.748143,-4.92027,-0.00492027
0.170885,-0.000791635,-0.791635,-5.20631,-0.00520631
0.165921,-0.000791529,-0.791529,-5.20561,-0.00520561
0.16088,-0.000814283,-0.814283,-5.35526,-0.00535526
0.1559269,-0.000837038,-0.837038,-5.5049,-0.0055049
0.150937,-0.000827649,-0.827649,-5.44316,-0.00544316
0.145906,-0.000806646,-0.806646,-5.30503,-0.00530503
0.1409182,-0.000856477,-0.856477,-5.63275,-0.00563275
0.135977,-0.000875014,-0.875014,-5.75466,-0.00575466
0.13096,-0.00090766,-0.90766,-5.96936,-0.00596936
0.125947,-0.00088366,-0.88366,-5.81152,-0.00581152
0.120943,-0.000909914,-0.909914,-5.98419,-0.00598419
0.115904,-0.000926743,-0.926743,-6.09487,-0.00609487
0.110947,-0.000924368,-0.924368,-6.07924,-0.00607924
0.105969,-0.000952479,-0.952479,-6.26412,-0.00626412
0.100986,-0.0009511,-0.9511,-6.25505,-0.00625505
0.0960086,-0.000931104,-0.931104,-6.12355,-0.00612355
0.0910126,-0.000956855,-0.956855,-6.2929,-0.0062929
0.0859489,-0.000994938,-0.994938,-6.54336,-0.00654336
0.0810302,-0.00100303,-1.00303,-6.59655,-0.00659655
0.0760224,-0.000996741,-0.996741,-6.55522,-0.00655522
0.0710296,-0.00100515,-1.00515,-6.61051,-0.00661051
0.06602066,-0.00103254,-1.03254,-6.79067,-0.00679067
0.0609761,-0.00104591,-1.04591,-6.87858,-0.00687858
0.0560245,-0.00107097,-1.07097,-7.0434,-0.0070434
0.0510005,-0.0010667,-1.0667,-7.01532,-0.00701532
0.0460595,-0.00106296,-1.06296,-6.99072,-0.00699072
0.0410332,-0.00108397,-1.08397,-7.12886,-0.00712886
0.0360652,-0.00111303,-1.11303,-7.32002,-0.00732002
0.031117,-0.00111327,-1.11327,-7.32159,-0.00732159
0.0260892,-0.00112388,-1.12388,-7.39135,-0.00739135
0.0210767,-0.00113899,-1.13899,-7.49077,-0.00749077
0.0160584,-0.00119018,-1.19018,-7.82738,-0.00782738
0.0110998,-0.00116529,-1.16529,-7.66372,-0.00766372
0.00606563,-0.00117278,-1.17278,-7.71297,-0.00771297
0.001078571,-0.00122423,-1.22423,-8.05133,-0.00805133
-0.003915491,-0.00121969,-1.21969,-8.0215,-0.0080215
-0.00891507,-0.00124714,-1.24714,-8.20202,-0.00820202
-0.0139238,-0.00124849,-1.24849,-8.21091,-0.00821091
-0.0189079,-0.00126419,-1.26419,-8.31417,-0.00831417
-0.0239055,-0.00128297,-1.28297,-8.43765,-0.00843765
-0.0289138,-0.00129392,-1.29392,-8.50968,-0.00850968
-0.0338892,-0.0013555,-1.3555,-8.91467,-0.00891467
-0.0389032,-0.00141828,-1.41828,-9.3275,-0.0093275
-0.0439106,-0.00146763,-1.46763,-9.65209,-0.00965209
-0.0488814,-0.00147813,-1.47813,-9.72115,-0.00972115
-0.0538593,-0.00152168,-1.52168,-10.0075,-0.0100075
-0.0588837,-0.00155493,-1.55493,-10.2263,-0.0102263
-0.0638856,-0.00162152,-1.62152,-10.6642,-0.0106642
-0.068868,-0.00167279,-1.67279,-11.0013,-0.0110013
-0.0738744,-0.00176805,-1.76805,-11.6278,-0.0116278
-0.0788986,-0.00187994,-1.87994,-12.3637,-0.0123637
-0.0838856,-0.00195284,-1.95284,-12.8431,-0.0128431
-0.0888515,-0.00206011,-2.06011,-13.5486,-0.0135486
-0.09382835,-0.00217951,-2.17951,-14.3338,-0.0143338
-0.0988625,-0.00233001,-2.33001,-15.3236,-0.0153236
-0.103765,-0.00247754,-2.47754,-16.2939,-0.0162939
-0.108823,-0.0026497,-2.6497,-17.4262,-0.0174262
-0.113784,-0.00285484,-2.85484,-18.7753,-0.0187753
-0.118781,-0.00312001,-3.12001,-20.5192,-0.0205192
-0.123797,-0.003341,-3.341,-21.9726,-0.0219726
-0.128773,-0.00361286,-3.61286,-23.7605,-0.0237605
-0.133739,-0.00390747,-3.90747,-25.698,-0.025698
-0.1387573,-0.00417222,-4.17222,-27.4392,-0.0274392
-0.143693,-0.00442365,-4.42365,-29.0928,-0.0290928
-0.148722,-0.00470529,-4.70529,-30.9451,-0.0309451
-0.153743,-0.00488107,-4.88107,-32.1011,-0.0321011
-0.1587223,-0.00490114,-4.90114,-32.2331,-0.0322331
-0.163763,-0.00472662,-4.72662,-31.0853,-0.0310853
-0.168817,-0.00436518,-4.36518,-28.7082,-0.0287082
-0.173769,-0.0038771,-3.8771,-25.4983,-0.0254983
-0.178799,-0.00342287,-3.42287,-22.511,-0.022511
-0.183833,-0.00300563,-3.00563,-19.767,-0.019767
-0.1888157,-0.00265278,-2.65278,-17.4464,-0.0174464
-0.193746,-0.00238639,-2.38639,-15.6944,-0.0156944
-0.1952948,-0.00232719,-2.32719,-15.3051,-0.0153051