File: literature/rawdata/engstfeld_2018_polycrystalline_17743/1708030001Cu100_UHV_C01_cycle30.csv
E,<I>,I (raw),j,j
V vs. RHE,mA,\g(m)A,\g(m)A/cm\+(-2),mA/cm\+(-2)
-0.195394,-0.00263175,-2.63175,-17.3081,-0.0173081
-0.197556,-0.000608435,-0.608435,-4.00147,-0.00400147
-0.190149,1.8868e-05,0.018868,0.124088,0.000124088
-0.183199,0.000439846,0.439846,2.89271,0.00289271
-0.176253,0.000880343,0.880343,5.78971,0.00578971
-0.169246,0.0013376,1.3376,8.79693,0.00879693
-0.162283,0.00185421,1.85421,12.1945,0.0121945
-0.155254,0.00231762,2.31762,15.2422,0.0152422
-0.14823,0.00269243,2.69243,17.7071,0.0177071
-0.141321,0.00277692,2.77692,18.2628,0.0182628
-0.134256,0.00286754,2.86754,18.8588,0.0188588
-0.12732,0.00283094,2.83094,18.6181,0.0186181
-0.120289,0.00269916,2.69916,17.7514,0.0177514
-0.113301,0.00249026,2.49026,16.3776,0.0163776
-0.106274,0.0022488,2.2488,14.7896,0.0147896
-0.0993224,0.00198564,1.98564,13.0589,0.0130589
-0.0923055,0.00174314,1.74314,11.464,0.011464
-0.0852504,0.00153082,1.53082,10.0677,0.0100677
-0.0783629,0.00131805,1.31805,8.66839,0.00866839
-0.0713459,0.00117007,1.17007,7.69516,0.00769516
-0.0643296,0.00104246,1.04246,6.85589,0.00685589
-0.0573454,0.000916065,0.916065,6.02464,0.00602464
-0.0503321,0.000821999,0.821999,5.406,0.005406
-0.0433839,0.000767686,0.767686,5.0488,0.0050488
-0.0363575,0.000721833,0.721833,4.74724,0.00474724
-0.029327,0.000642963,0.642963,4.22854,0.00422854
-0.0223587,0.000546218,0.546218,3.59228,0.00359228
-0.0153738,0.000484824,0.484824,3.18852,0.00318852
-0.00839875,0.000455758,0.455758,2.99736,0.00299736
-0.00136381,0.000437035,0.437035,2.87423,0.00287423
0.00560788,0.000372777,0.372777,2.45162,0.00245162
0.0126239,0.000365219,0.365219,2.40192,0.00240192
0.0196444,0.000349837,0.349837,2.30076,0.00230076
0.026614,0.000355009,0.355009,2.33477,0.00233477
0.0336283,0.000392322,0.392322,2.58017,0.00258017
0.0405752,0.000396035,0.396035,2.60458,0.00260458
0.0475433,0.000423377,0.423377,2.7844,0.0027844
0.0545757,0.000368905,0.368905,2.42616,0.00242616
0.06162972,0.000353258,0.353258,2.32326,0.00232326
0.068531,0.000314937,0.314937,2.07123,0.00207123
0.0754914,0.000289823,0.289823,1.90606,0.00190606
0.0825976,0.000318995,0.318995,2.09792,0.00209792
0.0895311,0.000275396,0.275396,1.81118,0.00181118
0.0965306,0.000305549,0.305549,2.00949,0.00200949
0.103521,0.000289319,0.289319,1.90275,0.00190275
0.110493,0.000301544,0.301544,1.98315,0.00198315
0.117558,0.000270702,0.270702,1.78031,0.00178031
0.124503,0.000262268,0.262268,1.72485,0.00172485
0.131496,0.000261977,0.261977,1.72293,0.00172293
0.1384968,0.000262189,0.262189,1.72432,0.00172432
0.145471,0.000264576,0.264576,1.74002,0.00174002
0.152496,0.000266087,0.266087,1.74996,0.00174996
0.159476,0.000224928,0.224928,1.47927,0.00147927
0.1665033,0.000248133,0.248133,1.63189,0.00163189
0.173452,0.000225883,0.225883,1.48555,0.00148555
0.180523,0.000231293,0.231293,1.52113,0.00152113
0.187474,0.000227474,0.227474,1.49602,0.00149602
0.194493,0.000216256,0.216256,1.42224,0.00142224
0.201442,0.000205516,0.205516,1.3516,0.0013516
0.208452,0.000191513,0.191513,1.25951,0.00125951
0.215433,0.000217927,0.217927,1.43323,0.00143323
0.2224672,0.000191752,0.191752,1.26108,0.00126108
0.229435,0.000191089,0.191089,1.25672,0.00125672
0.236418,0.000204587,0.204587,1.3455,0.0013455
0.243462,0.000217662,0.217662,1.43149,0.00143149
0.250483,0.00022103,0.22103,1.45364,0.00145364
0.257453,0.00020525,0.20525,1.34986,0.00134986
0.264388,0.000242803,0.242803,1.59683,0.00159683
0.271414,0.000245004,0.245004,1.6113,0.0016113
0.278372,0.000266962,0.266962,1.75572,0.00175572
0.285371,0.000259722,0.259722,1.7081,0.0017081
0.292408,0.000302101,0.302101,1.98681,0.00198681
0.299378,0.000298998,0.298998,1.96641,0.00196641
0.306361,0.000328223,0.328223,2.15861,0.00215861
0.313404,0.000330212,0.330212,2.17169,0.00217169
0.320376,0.000357687,0.357687,2.35238,0.00235238
0.327337,0.00037771,0.37771,2.48407,0.00248407
0.334344,0.000421441,0.421441,2.77167,0.00277167
0.3413423,0.000457747,0.457747,3.01044,0.00301044
0.348299,0.000525002,0.525002,3.45275,0.00345275
0.355273,0.000720799,0.720799,4.74044,0.00474044
0.36234,0.000772539,0.772539,5.08072,0.00508072
0.369293,0.000824465,0.824465,5.42222,0.00542222
0.376308,0.000921767,0.921767,6.06214,0.00606214
0.383246,0.00100578,1.00578,6.61468,0.00661468
0.3902781,0.00115888,1.15888,7.62156,0.00762156
0.397255,0.00129217,1.29217,8.49816,0.00849816
0.404236,0.001509,1.509,9.92416,0.00992416
0.4112545,0.00171273,1.71273,11.264,0.011264
0.418236,0.00187063,1.87063,12.3024,0.0123024
0.425202,0.00200853,2.00853,13.2094,0.0132094
0.4322356,0.00210413,2.10413,13.8381,0.0138381
0.439255,0.0022941,2.2941,15.0875,0.0150875
0.445755,0.00255906,2.55906,16.83,0.01683
0.449356,-0.000237898,-0.237898,-1.56457,-0.00156457
0.441903,-0.00228681,-2.28681,-15.0395,-0.0150395
0.434973,-0.00229161,-2.29161,-15.0711,-0.0150711
0.4279798,-0.00235356,-2.35356,-15.4785,-0.0154785
0.42098,-0.00233969,-2.33969,-15.3873,-0.0153873
0.414,-0.00233173,-2.33173,-15.335,-0.015335
0.406993,-0.00220276,-2.20276,-14.4868,-0.0144868
0.399974,-0.00201134,-2.01134,-13.2279,-0.0132279
0.3930271,-0.00179616,-1.79616,-11.8127,-0.0118127
0.386054,-0.0016389,-1.6389,-10.7784,-0.0107784
0.379061,-0.0015156,-1.5156,-9.9676,-0.0099676
0.3720254,-0.00138064,-1.38064,-9.08001,-0.00908001
0.365059,-0.00132546,-1.32546,-8.71706,-0.00871706
0.358039,-0.00133055,-1.33055,-8.75055,-0.00875055
0.351063,-0.00126364,-1.26364,-8.3105,-0.0083105
0.34405,-0.00114936,-1.14936,-7.55896,-0.00755896
0.337089,-0.00100303,-1.00303,-6.59655,-0.00659655
0.33008,-0.000954601,-0.954601,-6.27807,-0.00627807
0.323073,-0.00091864,-0.91864,-6.04157,-0.00604157
0.316112,-0.000899969,-0.899969,-5.91878,-0.00591878
0.309083,-0.000920682,-0.920682,-6.055,-0.006055
0.302112,-0.000880265,-0.880265,-5.7892,-0.0057892
0.2950955,-0.000834094,-0.834094,-5.48554,-0.00548554
0.288101,-0.000857644,-0.857644,-5.64042,-0.00564042
0.281112,-0.000862895,-0.862895,-5.67496,-0.00567496
0.274134,-0.000848096,-0.848096,-5.57763,-0.00557763
0.267151,-0.000823486,-0.823486,-5.41578,-0.00541578
0.26013,-0.000835208,-0.835208,-5.49287,-0.00549287
0.253141,-0.00083725,-0.83725,-5.5063,-0.0055063
0.246186,-0.000840565,-0.840565,-5.5281,-0.0055281
0.239207,-0.000856105,-0.856105,-5.63031,-0.00563031
0.232143,-0.000872866,-0.872866,-5.74053,-0.00574053
0.225191,-0.00085775,-0.85775,-5.64112,-0.00564112
0.218212,-0.000884588,-0.884588,-5.81763,-0.00581763
0.21118,-0.000894878,-0.894878,-5.8853,-0.0058853
0.204167,-0.000896495,-0.896495,-5.89594,-0.00589594
0.197179,-0.000880106,-0.880106,-5.78815,-0.00578815
0.190167,-0.000898643,-0.898643,-5.91006,-0.00591006
0.183202,-0.000938556,-0.938556,-6.17255,-0.00617255
0.176202,-0.000925614,-0.925614,-6.08744,-0.00608744
0.169257,-0.000963114,-0.963114,-6.33406,-0.00633406
0.16222,-0.000990721,-0.990721,-6.51562,-0.00651562
0.155207,-0.000992073,-0.992073,-6.52452,-0.00652452
0.148242,-0.000990853,-0.990853,-6.5165,-0.0065165
0.141218,-0.00103018,-1.03018,-6.77515,-0.00677515
0.1342625,-0.00103138,-1.03138,-6.783,-0.006783
0.1272628,-0.00104734,-1.04734,-6.888,-0.006888
0.120256,-0.00104859,-1.04859,-6.89619,-0.00689619
0.113249,-0.00107917,-1.07917,-7.09729,-0.00709729
0.106252,-0.00108508,-1.08508,-7.13618,-0.00713618
0.0993009,-0.00107468,-1.07468,-7.06781,-0.00706781
0.0922294,-0.00109248,-1.09248,-7.18485,-0.00718485
0.0853021,-0.00111128,-1.11128,-7.3085,-0.0073085
0.078271,-0.00112624,-1.12624,-7.40687,-0.00740687
0.0713176,-0.00115172,-1.15172,-7.57448,-0.00757448
0.0643333,-0.00114833,-1.14833,-7.55216,-0.00755216
0.0572997,-0.00119299,-1.19299,-7.84587,-0.00784587
0.0503333,-0.00120179,-1.20179,-7.90377,-0.00790377
0.0433102,-0.00123444,-1.23444,-8.11848,-0.00811848
0.0363144,-0.0012342,-1.2342,-8.11691,-0.00811691
0.0293601,-0.00126804,-1.26804,-8.33946,-0.00833946
0.02232874,-0.00129681,-1.29681,-8.52869,-0.00852869
0.0153394,-0.00130909,-1.30909,-8.60945,-0.00860945
0.00836922,-0.0013624,-1.3624,-8.96002,-0.00896002
0.00134214,-0.00138263,-1.38263,-9.09309,-0.00909309
-0.00569131,-0.00139812,-1.39812,-9.19495,-0.00919495
-0.0126624,-0.00142005,-1.42005,-9.33919,-0.00933919
-0.01963619,-0.00146363,-1.46363,-9.62575,-0.00962575
-0.0266363,-0.00152237,-1.52237,-10.0121,-0.0100121
-0.0336785,-0.0015447,-1.5447,-10.1589,-0.0101589
-0.0406135,-0.0016058,-1.6058,-10.5608,-0.0105608
-0.0476257,-0.00165046,-1.65046,-10.8545,-0.0108545
-0.0545921,-0.00174543,-1.74543,-11.4791,-0.0114791
-0.0616684,-0.00182326,-1.82326,-11.991,-0.011991
-0.068576,-0.0018724,-1.8724,-12.3141,-0.0123141
-0.0756169,-0.00201132,-2.01132,-13.2277,-0.0132277
-0.0825807,-0.00215285,-2.15285,-14.1586,-0.0141586
-0.0895467,-0.0023325,-2.3325,-15.34,-0.01534
-0.0965434,-0.00250201,-2.50201,-16.4549,-0.0164549
-0.103527,-0.00270579,-2.70579,-17.7951,-0.0177951
-0.110549,-0.00297274,-2.97274,-19.5507,-0.0195507
-0.117516,-0.00328846,-3.28846,-21.6271,-0.0216271
-0.124542,-0.003652,-3.652,-24.0179,-0.0240179
-0.131525,-0.00398427,-3.98427,-26.2031,-0.0262031
-0.1384844,-0.00434531,-4.34531,-28.5776,-0.0285776
-0.14546,-0.00467628,-4.67628,-30.7543,-0.0307543
-0.152494,-0.00490048,-4.90048,-32.2288,-0.0322288
-0.15951,-0.00491162,-4.91162,-32.302,-0.032302
-0.166559,-0.00458805,-4.58805,-30.174,-0.030174
-0.1735848,-0.00399223,-3.99223,-26.2555,-0.0262555
-0.1805722,-0.00339454,-3.39454,-22.3247,-0.0223247
-0.187568,-0.00295344,-2.95344,-19.4237,-0.0194237
-0.194556,-0.00259478,-2.59478,-17.065,-0.017065
-0.1953139,-0.00254869,-2.54869,-16.7618,-0.0167618