File: literature/rawdata/engstfeld_2018_polycrystalline_17743/1708030001Cu100_UHV_C01_cycle32.csv
E,<I>,I (raw),j,j
V vs. RHE,mA,\g(m)A,\g(m)A/cm\+(-2),mA/cm\+(-2)
-0.1954094,-0.00249379,-2.49379,-16.4008,-0.0164008
-0.198342,-0.000854594,-0.854594,-5.62036,-0.00562036
-0.192265,0.000153404,0.153404,1.00888,0.00100888
-0.186261,0.00045056,0.45056,2.96318,0.00296318
-0.18026,0.000798847,0.798847,5.25374,0.00525374
-0.17427,0.00118278,1.18278,7.77871,0.00777871
-0.168271,0.00163102,1.63102,10.7266,0.0107266
-0.1622909,0.00204457,2.04457,13.4464,0.0134464
-0.1564,0.00244616,2.44616,16.0875,0.0160875
-0.150337,0.00270136,2.70136,17.7659,0.0177659
-0.144315,0.00286552,2.86552,18.8455,0.0188455
-0.138338,0.00299685,2.99685,19.7092,0.0197092
-0.132314,0.00298574,2.98574,19.6361,0.0196361
-0.1263113,0.0029267,2.9267,19.2479,0.0192479
-0.120316,0.00274,2.74,18.02,0.01802
-0.114309,0.00258393,2.58393,16.9936,0.0169936
-0.108286,0.00238015,2.38015,15.6534,0.0156534
-0.102334,0.00213681,2.13681,14.0531,0.0140531
-0.0962752,0.00189486,1.89486,12.4619,0.0124619
-0.090327,0.00169909,1.69909,11.1743,0.0111743
-0.0843591,0.00150794,1.50794,9.91718,0.00991718
-0.078343,0.00131325,1.31325,8.63682,0.00863682
-0.0723547,0.0012329,1.2329,8.10835,0.00810835
-0.0663632,0.00108608,1.08608,7.1428,0.0071428
-0.0603614,0.000950294,0.950294,6.24975,0.00624975
-0.0543939,0.000891852,0.891852,5.8654,0.0058654
-0.0483627,0.000813062,0.813062,5.34722,0.00534722
-0.0423734,0.00076697,0.76697,5.04409,0.00504409
-0.0363972,0.000709289,0.709289,4.66475,0.00466475
-0.0303431,0.000674627,0.674627,4.43679,0.00443679
-0.0243887,0.000573003,0.573003,3.76844,0.00376844
-0.018377,0.000540914,0.540914,3.5574,0.0035574
-0.0123937,0.000487529,0.487529,3.20631,0.00320631
-0.00639883,0.000469548,0.469548,3.08806,0.00308806
-0.000372981,0.000423271,0.423271,2.78371,0.00278371
0.00557753,0.000413565,0.413565,2.71987,0.00271987
0.0116074,0.000376172,0.376172,2.47395,0.00247395
0.0175575,0.000418683,0.418683,2.75353,0.00275353
0.02356204,0.000391183,0.391183,2.57267,0.00257267
0.0295731,0.000401021,0.401021,2.63737,0.00263737
0.035585,0.000412,0.412,2.70958,0.00270958
0.0416295,0.00044645,0.44645,2.93614,0.00293614
0.0475838,0.000494053,0.494053,3.24921,0.00324921
0.0535594,0.000411814,0.411814,2.70836,0.00270836
0.0596177,0.000395133,0.395133,2.59865,0.00259865
0.065603,0.000335985,0.335985,2.20966,0.00220966
0.0715992,0.000303348,0.303348,1.99501,0.00199501
0.0775507,0.000316316,0.316316,2.0803,0.0020803
0.0835386,0.000318013,0.318013,2.09146,0.00209146
0.08950568,0.00028908,0.28908,1.90118,0.00190118
0.095533,0.000303931,0.303931,1.99885,0.00199885
0.101555,0.000288205,0.288205,1.89542,0.00189542
0.107514,0.000285094,0.285094,1.87497,0.00187497
0.1134705,0.000280381,0.280381,1.84397,0.00184397
0.119529,0.000289584,0.289584,1.90449,0.00190449
0.125508,0.000319074,0.319074,2.09844,0.00209844
0.131539,0.000270728,0.270728,1.78048,0.00178048
0.137504,0.000250069,0.250069,1.64462,0.00164462
0.143489,0.000316581,0.316581,2.08204,0.00208204
0.149514,0.000256964,0.256964,1.68996,0.00168996
0.155477,0.000293217,0.293217,1.92839,0.00192839
0.161506,0.000256301,0.256301,1.6856,0.0016856
0.167491,0.000244155,0.244155,1.60572,0.00160572
0.173485,0.000258688,0.258688,1.7013,0.0017013
0.1794809,0.000261048,0.261048,1.71682,0.00171682
0.185444,0.000219836,0.219836,1.44579,0.00144579
0.191439,0.000206895,0.206895,1.36067,0.00136067
0.197439,0.000241397,0.241397,1.58758,0.00158758
0.203419,0.000248849,0.248849,1.63659,0.00163659
0.20948,0.000226413,0.226413,1.48904,0.00148904
0.215448,0.000204906,0.204906,1.34759,0.00134759
0.22144,0.00022339,0.22339,1.46916,0.00146916
0.227427,0.000231107,0.231107,1.51991,0.00151991
0.233441,0.000201378,0.201378,1.3244,0.0013244
0.239423,0.000229994,0.229994,1.51259,0.00151259
0.245432,0.000234131,0.234131,1.5398,0.0015398
0.251395,0.000244129,0.244129,1.60555,0.00160555
0.2573908,0.0002589,0.2589,1.7027,0.0017027
0.263406,0.0002589,0.2589,1.7027,0.0017027
0.269396,0.000285951,0.285951,1.8806,0.0018806
0.275359,0.000262587,0.262587,1.72694,0.00172694
0.281361,0.000298521,0.298521,1.96327,0.00196327
0.287373,0.000308705,0.308705,2.03024,0.00203024
0.2933549,0.000290565,0.290565,1.91095,0.00191095
0.299356,0.000337002,0.337002,2.21634,0.00221634
0.3053818,0.000310747,0.310747,2.04367,0.00204367
0.311328,0.000337903,0.337903,2.22227,0.00222227
0.317326,0.00039516,0.39516,2.59883,0.00259883
0.323338,0.000353603,0.353603,2.32552,0.00232552
0.329352,0.000402453,0.402453,2.64679,0.00264679
0.335346,0.000435311,0.435311,2.86289,0.00286289
0.341357,0.000466393,0.466393,3.0673,0.0030673
0.345939,0.000502592,0.502592,3.30538,0.00330538
0.348885,-0.000470823,-0.470823,-3.09644,-0.00309644
0.342866,-0.000854037,-0.854037,-5.6167,-0.0056167
0.336837,-0.000783308,-0.783308,-5.15154,-0.00515154
0.330862,-0.000810783,-0.810783,-5.33224,-0.00533224
0.324879,-0.000793752,-0.793752,-5.22023,-0.00522023
0.318932,-0.000781929,-0.781929,-5.14247,-0.00514247
0.312914,-0.000788983,-0.788983,-5.18887,-0.00518887
0.306946,-0.000773602,-0.773602,-5.08771,-0.00508771
0.300971,-0.000772833,-0.772833,-5.08265,-0.00508265
0.294959,-0.000747453,-0.747453,-4.91574,-0.00491574
0.288973,-0.000771904,-0.771904,-5.07655,-0.00507655
0.282977,-0.000769015,-0.769015,-5.05754,-0.00505754
0.277024,-0.000748991,-0.748991,-4.92585,-0.00492585
0.270923,-0.000786066,-0.786066,-5.16968,-0.00516968
0.264971,-0.000786809,-0.786809,-5.17457,-0.00517457
0.259026,-0.000778694,-0.778694,-5.1212,-0.0051212
0.253,-0.000757212,-0.757212,-4.97992,-0.00497992
0.247013,-0.000798955,-0.798955,-5.25445,-0.00525445
0.240982,-0.000791549,-0.791549,-5.20574,-0.00520574
0.235004,-0.000799432,-0.799432,-5.25759,-0.00525759
0.229006,-0.000829745,-0.829745,-5.45694,-0.00545694
0.223051,-0.000833749,-0.833749,-5.48328,-0.00548328
0.217079,-0.000782353,-0.782353,-5.14526,-0.00514526
0.211018,-0.000838098,-0.838098,-5.51188,-0.00551188
0.2050454,-0.000835128,-0.835128,-5.49235,-0.00549235
0.199067,-0.000837732,-0.837732,-5.50947,-0.00550947
0.1930438,-0.00087154,-0.87154,-5.73181,-0.00573181
0.187043,-0.00087101,-0.87101,-5.72833,-0.00572833
0.181032,-0.00090164,-0.90164,-5.92977,-0.00592977
0.1750685,-0.000908085,-0.908085,-5.97216,-0.00597216
0.169079,-0.000904398,-0.904398,-5.94791,-0.00594791
0.1630896,-0.000920204,-0.920204,-6.05186,-0.00605186
0.157063,-0.00092253,-0.92253,-6.06716,-0.00606716
0.151101,-0.000950782,-0.950782,-6.25296,-0.00625296
0.145096,-0.00097465,-0.97465,-6.40993,-0.00640993
0.139081,-0.000989687,-0.989687,-6.50882,-0.00650882
0.133116,-0.000978124,-0.978124,-6.43278,-0.00643278
0.1270856,-0.00102647,-1.02647,-6.75073,-0.00675073
0.121068,-0.00102443,-1.02443,-6.7373,-0.0067373
0.115095,-0.00101207,-1.01207,-6.656,-0.006656
0.109081,-0.00103069,-1.03069,-6.77846,-0.00677846
0.103141,-0.00103254,-1.03254,-6.79067,-0.00679067
0.09714967,-0.0010693,-1.0693,-7.03241,-0.00703241
0.0911762,-0.00107169,-1.07169,-7.04811,-0.00704811
0.0851404,-0.00105962,-1.05962,-6.96875,-0.00696875
0.0791447,-0.00106636,-1.06636,-7.01305,-0.00701305
0.0731821,-0.00105222,-1.05222,-6.92009,-0.00692009
0.0671581,-0.00109492,-1.09492,-7.20089,-0.00720089
0.0611628,-0.00115061,-1.15061,-7.56716,-0.00756716
0.05517371,-0.00113305,-1.13305,-7.4517,-0.0074517
0.049199,-0.00111651,-1.11651,-7.34286,-0.00734286
0.04314493,-0.00114517,-1.14517,-7.5314,-0.0075314
0.0371465,-0.00118795,-1.18795,-7.81273,-0.00781273
0.0311868,-0.00121763,-1.21763,-8.0079,-0.0080079
0.0251648,-0.00124651,-1.24651,-8.19783,-0.00819783
0.01920642,-0.00127568,-1.27568,-8.38969,-0.00838969
0.0132226,-0.00126266,-1.26266,-8.30405,-0.00830405
0.007227506,-0.00132254,-1.32254,-8.69788,-0.00869788
0.00121757,-0.0013228,-1.3228,-8.69962,-0.00869962
-0.004813374,-0.00133728,-1.33728,-8.79485,-0.00879485
-0.0107957,-0.00136582,-1.36582,-8.98252,-0.00898252
-0.0167679,-0.00137163,-1.37163,-9.02071,-0.00902071
-0.0227999,-0.00140708,-1.40708,-9.2539,-0.0092539
-0.0288245,-0.00143745,-1.43745,-9.45361,-0.00945361
-0.0347769,-0.00148293,-1.48293,-9.75272,-0.00975272
-0.0407979,-0.00151202,-1.51202,-9.94405,-0.00994405
-0.0467382,-0.00156684,-1.56684,-10.3046,-0.0103046
-0.0526949,-0.00162198,-1.62198,-10.6672,-0.0106672
-0.0586889,-0.00168279,-1.68279,-11.0671,-0.0110671
-0.0647226,-0.00174044,-1.74044,-11.4463,-0.0114463
-0.07071089,-0.00183045,-1.83045,-12.0382,-0.0120382
-0.0766712,-0.0019242,-1.9242,-12.6548,-0.0126548
-0.0827431,-0.00206253,-2.06253,-13.5645,-0.0135645
-0.08870887,-0.002172,-2.172,-14.2845,-0.0142845
-0.0946235,-0.00231314,-2.31314,-15.2127,-0.0152127
-0.100643,-0.00250854,-2.50854,-16.4978,-0.0164978
-0.106669,-0.00271911,-2.71911,-17.8826,-0.0178826
-0.112674,-0.00295543,-2.95543,-19.4368,-0.0194368
-0.118609,-0.00326088,-3.26088,-21.4457,-0.0214457
-0.1246643,-0.00354086,-3.54086,-23.287,-0.023287
-0.130616,-0.00384904,-3.84904,-25.3138,-0.0253138
-0.136653,-0.00419791,-4.19791,-27.6082,-0.0276082
-0.1426332,-0.00452053,-4.52053,-29.7299,-0.0297299
-0.148623,-0.00474693,-4.74693,-31.2189,-0.0312189
-0.1545735,-0.00495002,-4.95002,-32.5546,-0.0325546
-0.160659,-0.00490812,-4.90812,-32.279,-0.032279
-0.166681,-0.00457757,-4.57757,-30.1051,-0.0301051
-0.1727,-0.00403052,-4.03052,-26.5073,-0.0265073
-0.178687,-0.00351179,-3.51179,-23.0958,-0.0230958
-0.184695,-0.00304034,-3.04034,-19.9953,-0.0199953
-0.1906537,-0.00268975,-2.68975,-17.6895,-0.0176895
-0.195306,-0.00241885,-2.41885,-15.9079,-0.0159079
-0.195333,-0.00241503,-2.41503,-15.8828,-0.0158828