File: literature/rawdata/engstfeld_2018_polycrystalline_17743/1708030001Cu100_UHV_C01_cycle29.csv
E,j,
V vs. RHE,\g(m)A/cm\+(-2),
-0.195379,-19.3581
-0.198615,-11.775
-0.194447,-2.78128
-0.189162,-1.74422
-0.184247,0.185482
-0.1792658,2.37087
-0.174252,4.43574
-0.169272,6.69386
-0.16432,8.95427
-0.159338,11.327
-0.154335,13.4028
-0.1493288,15.0348
-0.1443288,16.1695
-0.1392768,17.0384
-0.134342,17.2469
-0.129349,17.2629
-0.124313,16.9727
-0.119362,16.2604
-0.114332,15.4708
-0.109341,14.3037
-0.10432,13.2982
-0.0993181,12.0166
-0.09435124,10.7779
-0.08930923,10.079
-0.0843911,8.87088
-0.07934083,8.22294
-0.0743402,7.3889
-0.0693247,6.58363
-0.0643869,5.94406
-0.059358,5.42867
-0.054358,5.00101
-0.0493635,4.67451
-0.0443941,4.27546
-0.0394006,3.93031
-0.03437008,3.81989
-0.0293767,3.59228
-0.0243637,3.19392
-0.0193815,2.74429
-0.01442333,2.43157
-0.00944391,2.50412
-0.0044403,2.26448
0.000579441,1.90292
0.0055752,1.88513
0.0105315,1.81432
0.0155854,1.7231
0.0206147,1.80089
0.02558985,1.69903
0.0305905,1.81606
0.0355754,1.79601
0.0405875,2.2221
0.0455461,2.45982
0.050568,2.29413
0.0555294,1.74194
0.06055782,1.49236
0.0655445,1.72581
0.0705661,1.58183
0.075551,1.39224
0.0805459,1.45834
0.0855487,1.50701
0.0905241,1.30469
0.0955343,1.32474
0.100564,1.33626
0.105496,1.21591
0.110515,1.3223
0.115464,1.33835
0.120498,1.50701
0.1255188,1.41683
0.130495,1.25742
0.135521,1.25777
0.140504,1.34794
0.145464,1.24853
0.150447,1.27486
0.155492,1.32876
0.160443,1.22411
0.165451,1.16132
0.17047,1.31881
0.175503,1.16341
0.180473,1.00853
0.185427,1.16411
0.190401,0.985365
0.195456,1.09278
0.200433,1.01691
0.205452,0.929526
0.210462,1.02702
0.215486,1.1308
0.220458,1.16237
0.225433,1.0333
0.230434,0.850691
0.235413,0.809355
0.240416,0.919933
0.245426,1.0722
0.250389,1.08964
0.2554045,1.08301
0.260383,1.22864
0.265381,1.24277
0.270365,1.16394
0.275386,1.4777
0.280394,1.75642
0.285397,1.6038
0.290338,1.84223
0.295394,1.7133
0.300423,1.72973
0.30538,1.76671
0.310343,1.8785
0.315382,2.13646
0.320337,2.08972
0.3253805,2.25436
0.330351,2.38901
0.335364,2.62098
0.34034,3.0591
0.345302,3.21119
0.350296,3.26125
0.355302,4.61661
0.360347,5.06555
0.365301,5.11909
0.370273,5.32647
0.37529,5.71209
0.380271,6.27178
0.38528,6.71688
0.390291,7.42849
0.3952609,8.29514
0.400251,8.95896
0.405263,10.0674
0.410302,11.0878
0.415252,12.0124
0.420237,12.5953
0.425215,13.0383
0.430241,13.621
0.435196,14.3717
0.4402087,15.1689
0.445194,16.6183
0.450178,18.4693
0.455138,21.1319
0.460099,25.614
0.464999,33.7484
0.469782,50.5909
0.474353,88.5331
0.479732,131.86
0.485978,84.8907
0.490534,51.3534
0.495474,34.4185
0.497715,29.622
0.498542,2.47657
0.493002,-9.12745
0.487933,-14.476
0.483076,-22.4578
0.478173,-35.1474
0.473407,-56.8075
0.468372,-79.7581
0.463224,-85.1058
0.4582296,-92.2722
0.452708,-77.7379
0.447638,-48.8761
0.442791,-33.2817
0.437785,-25.6114
0.432915,-21.9492
0.4279117,-20.488
0.422926,-19.3203
0.417966,-18.3891
0.412994,-18.2328
0.407979,-17.5696
0.402964,-16.4111
0.397937,-15.1916
0.392914,-13.8751
0.387948,-12.7641
0.383007,-11.9437
0.377942,-11.0308
0.372945,-10.4765
0.367972,-10.127
0.362948,-9.89208
0.358012,-9.48779
0.352994,-9.4618
0.347947,-9.47314
0.342969,-8.09912
0.338008,-7.3767
0.33299,-7.33502
0.327966,-6.95445
0.323017,-6.73434
0.318046,-6.53062
0.31298,-6.77288
0.307961,-6.55975
0.303025,-6.40191
0.298108,-6.13558
0.293038,-5.96657
0.288055,-6.02954
0.283059,-6.21172
0.278076,-6.03843
0.273051,-6.21598
0.268049,-6.04994
0.263033,-6.11413
0.258072,-6.00564
0.253065,-6.22959
0.248077,-6.1136
0.2430319,-6.1579
0.238106,-6.18302
0.233088,-6.27511
0.228107,-6.23081
0.223151,-6.40522
0.21813,-6.40365
0.213114,-6.29464
0.208083,-6.54702
0.203088,-6.51336
0.198085,-6.55121
0.19311,-6.58679
0.1881,-6.63841
0.1831295,-6.64103
0.178146,-6.74753
0.173137,-6.91119
0.168137,-6.86567
0.16317,-6.91154
0.158139,-7.02648
0.153134,-7.01584
0.148162,-7.06136
0.1431592,-7.14717
0.138109,-7.11874
0.133109,-7.28252
0.128147,-7.46966
0.123106,-7.586
0.118149,-7.45553
0.113197,-7.61547
0.108166,-7.62873
0.103143,-7.74018
0.0982224,-7.79459
0.0931859,-7.82442
0.0881734,-7.88511
0.0831783,-7.9397
0.0782065,-7.85686
0.0732152,-7.99656
0.0681904,-8.34399
0.0632071,-8.14621
0.0582313,-8.30021
0.0532294,-8.4085
0.0482167,-8.58555
0.043243,-8.61904
0.0382485,-8.59986
0.0332294,-8.91432
0.0282241,-9.12989
0.0232907,-9.00606
0.0182307,-9.1939
0.0132975,-9.40512
0.00825675,-9.65156
0.00329282,-9.63744
-0.00171015,-9.85877
-0.006702302,-9.93777
-0.0117112,-10.0855
-0.0167038,-10.2032
-0.0217146,-10.1963
-0.02672736,-10.4678
-0.0317446,-10.8234
-0.0367397,-11.1737
-0.0416902,-11.4878
-0.0467083,-11.58
-0.0516885,-12.1537
-0.0566826,-12.4995
-0.0616926,-12.7273
-0.0667282,-13.1555
-0.0716918,-13.511
-0.0766444,-14.0349
-0.0816285,-14.8553
-0.0866924,-15.7708
-0.0916686,-16.4863
-0.0965952,-17.3053
-0.1016646,-18.387
-0.10662,-19.5673
-0.11156,-20.796
-0.116579,-22.5569
-0.12166,-24.0469
-0.126691,-25.66
-0.131591,-27.0227
-0.136586,-28.8486
-0.141553,-30.2469
-0.146586,-31.7015
-0.151595,-32.7741
-0.156605,-33.0399
-0.161633,-32.2492
-0.166635,-30.2007
-0.171657,-27.2852
-0.176703,-24.4382
-0.18165,-21.5871
-0.186617,-19.99
-0.191632,-18.4135
-0.195245,-17.3521
-0.195356,-17.2139