File: literature/rawdata/engstfeld_2018_polycrystalline_17743/1708030001Cu100_UHV_C01_cycle34.csv
E,<I>,I (raw),j,j
V vs. RHE,mA,\g(m)A,\g(m)A/cm\+(-2),mA/cm\+(-2)
-0.195501,-0.00242696,-2.42696,-15.9613,-0.0159613
-0.1983552,-0.000753208,-0.753208,-4.95359,-0.00495359
-0.192241,0.00023909,0.23909,1.57241,0.00157241
-0.18624,0.000542717,0.542717,3.56926,0.00356926
-0.18026,0.000942002,0.942002,6.19522,0.00619522
-0.174282,0.00132498,1.32498,8.71391,0.00871391
-0.1682809,0.00173638,1.73638,11.4196,0.0114196
-0.162356,0.00217027,2.17027,14.2731,0.0142731
-0.156295,0.00254078,2.54078,16.7099,0.0167099
-0.150369,0.00285627,2.85627,18.7847,0.0187847
-0.144273,0.00299536,2.99536,19.6995,0.0196995
-0.138331,0.0030785,3.0785,20.2462,0.0202462
-0.132324,0.00306978,3.06978,20.1889,0.0201889
-0.126337,0.0029603,2.9603,19.4689,0.0194689
-0.120324,0.00280084,2.80084,18.4201,0.0184201
-0.1143086,0.00263665,2.63665,17.3404,0.0173404
-0.108283,0.00240882,2.40882,15.842,0.015842
-0.102304,0.00214462,2.14462,14.1044,0.0141044
-0.0962763,0.00192549,1.92549,12.6633,0.0126633
-0.0903342,0.001697,1.697,11.1606,0.0111606
-0.0843425,0.00152157,1.52157,10.0068,0.0100068
-0.0783784,0.00139889,1.39889,9.2,0.0092
-0.072352,0.00120786,1.20786,7.9437,0.0079437
-0.0663412,0.00108884,1.08884,7.16094,0.00716094
-0.0603751,0.000976446,0.976446,6.42175,0.00642175
-0.0543883,0.000887636,0.887636,5.83767,0.00583767
-0.0484037,0.000817252,0.817252,5.37478,0.00537478
-0.0424075,0.000775297,0.775297,5.09886,0.00509886
-0.03636,0.000742412,0.742412,4.88259,0.00488259
-0.0303775,0.000651688,0.651688,4.28592,0.00428592
-0.0244327,0.000605039,0.605039,3.97913,0.00397913
-0.018341,0.000578944,0.578944,3.80751,0.00380751
-0.0124546,0.000507525,0.507525,3.33781,0.00333781
-0.00641793,0.000465703,0.465703,3.06277,0.00306277
-0.000448105,0.000443241,0.443241,2.91504,0.00291504
0.00556183,0.000462918,0.462918,3.04445,0.00304445
0.0115987,0.00039691,0.39691,2.61034,0.00261034
0.0175847,0.000393224,0.393224,2.5861,0.0025861
0.02355485,0.000412751,0.412751,2.71452,0.00271452
0.0295689,0.000414944,0.414944,2.72894,0.00272894
0.0355752,0.000422369,0.422369,2.77778,0.00277778
0.0415654,0.000448465,0.448465,2.9494,0.0029494
0.0475327,0.000499198,0.499198,3.28305,0.00328305
0.0535651,0.000407571,0.407571,2.68045,0.00268045
0.0595324,0.000365776,0.365776,2.40558,0.00240558
0.0655574,0.000341706,0.341706,2.24728,0.00224728
0.0715531,0.000349439,0.349439,2.29814,0.00229814
0.0775361,0.000313584,0.313584,2.06234,0.00206234
0.08352799,0.000333315,0.333315,2.1921,0.0021921
0.0895277,0.000317456,0.317456,2.0878,0.0020878
0.0955298,0.000301385,0.301385,1.98211,0.00198211
0.101547,0.000328727,0.328727,2.16193,0.00216193
0.107463,0.000325564,0.325564,2.14112,0.00214112
0.113482,0.000321567,0.321567,2.11483,0.00211483
0.119494,0.000313956,0.313956,2.06478,0.00206478
0.125523,0.000307564,0.307564,2.02274,0.00202274
0.131487,0.000302393,0.302393,1.98873,0.00198873
0.137487,0.000295551,0.295551,1.94373,0.00194373
0.143454,0.000293562,0.293562,1.93065,0.00193065
0.149445,0.000288444,0.288444,1.89699,0.00189699
0.1554437,0.00028245,0.28245,1.85758,0.00185758
0.161476,0.000268845,0.268845,1.7681,0.0017681
0.167478,0.000278499,0.278499,1.83159,0.00183159
0.1734561,0.000266167,0.266167,1.75049,0.00175049
0.179465,0.000257415,0.257415,1.69293,0.00169293
0.185458,0.000257123,0.257123,1.69101,0.00169101
0.191452,0.000273168,0.273168,1.79653,0.00179653
0.197458,0.00026439,0.26439,1.7388,0.0017388
0.203447,0.000249141,0.249141,1.63851,0.00163851
0.209444,0.000216071,0.216071,1.42102,0.00142102
0.215425,0.000234184,0.234184,1.54014,0.00154014
0.2214212,0.00023962,0.23962,1.5759,0.0015759
0.227442,0.000247974,0.247974,1.63084,0.00163084
0.233372,0.000242591,0.242591,1.59543,0.00159543
0.239391,0.000226016,0.226016,1.48643,0.00148643
0.245401,0.000248611,0.248611,1.63502,0.00163502
0.251394,0.000255691,0.255691,1.68159,0.00168159
0.257425,0.000237499,0.237499,1.56195,0.00156195
0.263377,0.000266458,0.266458,1.7524,0.0017524
0.269394,0.000284041,0.284041,1.86804,0.00186804
0.2753489,0.000312285,0.312285,2.05379,0.00205379
0.28133,0.000317695,0.317695,2.08937,0.00208937
0.28738,0.000278366,0.278366,1.83072,0.00183072
0.293359,0.000294411,0.294411,1.93624,0.00193624
0.297447,0.000296453,0.296453,1.94966,0.00194966
0.2972616,-0.000610849,-0.610849,-4.01734,-0.00401734
0.290823,-0.0006196,-0.6196,-4.07489,-0.00407489
0.284891,-0.000668821,-0.668821,-4.3986,-0.0043986
0.278904,-0.000664499,-0.664499,-4.37017,-0.00437017
0.272939,-0.00063164,-0.63164,-4.15408,-0.00415408
0.266943,-0.000709583,-0.709583,-4.66668,-0.00466668
0.260963,-0.000714515,-0.714515,-4.69912,-0.00469912
0.254975,-0.000727165,-0.727165,-4.78231,-0.00478231
0.24896,-0.000710564,-0.710564,-4.67313,-0.00467313
0.2429693,-0.000725176,-0.725176,-4.76923,-0.00476923
0.236989,-0.000708204,-0.708204,-4.65761,-0.00465761
0.230964,-0.00072637,-0.72637,-4.77708,-0.00477708
0.2250265,-0.000762278,-0.762278,-5.01323,-0.00501323
0.21903,-0.000782512,-0.782512,-5.14631,-0.00514631
0.212997,-0.000786225,-0.786225,-5.17073,-0.00517073
0.207024,-0.000806327,-0.806327,-5.30293,-0.00530293
0.201022,-0.00081972,-0.81972,-5.39101,-0.00539101
0.195062,-0.000834651,-0.834651,-5.48921,-0.00548921
0.1890365,-0.000813514,-0.813514,-5.3502,-0.0053502
0.183025,-0.000833749,-0.833749,-5.48328,-0.00548328
0.177034,-0.000877268,-0.877268,-5.76949,-0.00576949
0.171049,-0.000869365,-0.869365,-5.71751,-0.00571751
0.165044,-0.000869657,-0.869657,-5.71943,-0.00571943
0.159097,-0.000886126,-0.886126,-5.82774,-0.00582774
0.153082,-0.000894931,-0.894931,-5.88565,-0.00588565
0.147088,-0.000906122,-0.906122,-5.95925,-0.00595925
0.141042,-0.000936567,-0.936567,-6.15947,-0.00615947
0.135104,-0.000956404,-0.956404,-6.28993,-0.00628993
0.129079,-0.000962371,-0.962371,-6.32918,-0.00632918
0.123094,-0.000950914,-0.950914,-6.25383,-0.00625383
0.117104,-0.000953566,-0.953566,-6.27127,-0.00627127
0.111086,-0.000990827,-0.990827,-6.51632,-0.00651632
0.105127,-0.00101056,-1.01056,-6.64609,-0.00664609
0.0991262,-0.00100626,-1.00626,-6.61783,-0.00661783
0.0931254,-0.00102522,-1.02522,-6.74254,-0.00674254
0.0871261,-0.00100006,-1.00006,-6.57702,-0.00657702
0.0811408,-0.00107405,-1.07405,-7.06363,-0.00706363
0.0750882,-0.00105803,-1.05803,-6.95828,-0.00695828
0.06909503,-0.00107097,-1.07097,-7.0434,-0.0070434
0.0631655,-0.00108686,-1.08686,-7.14787,-0.00714787
0.0571677,-0.00109102,-1.09102,-7.17525,-0.00717525
0.0511643,-0.00109139,-1.09139,-7.1777,-0.0071777
0.0451688,-0.00111383,-1.11383,-7.32525,-0.00732525
0.0391487,-0.00115379,-1.15379,-7.58809,-0.00758809
0.0331341,-0.00116734,-1.16734,-7.67721,-0.00767721
0.0271751,-0.0012002,-1.2002,-7.89331,-0.00789331
0.0212148,-0.00120853,-1.20853,-7.94808,-0.00794808
0.01515332,-0.00124221,-1.24221,-8.16958,-0.00816958
0.009141475,-0.00123272,-1.23272,-8.10714,-0.00810714
0.003228311,-0.00126353,-1.26353,-8.30981,-0.00830981
-0.00282746,-0.00129135,-1.29135,-8.49277,-0.00849277
-0.00881236,-0.00127806,-1.27806,-8.40539,-0.00840539
-0.0147881,-0.00131583,-1.31583,-8.65375,-0.00865375
-0.020807,-0.00132676,-1.32676,-8.72561,-0.00872561
-0.0267961,-0.00137473,-1.37473,-9.04112,-0.00904112
-0.0327534,-0.00139974,-1.39974,-9.20559,-0.00920559
-0.0388001,-0.00145021,-1.45021,-9.5375,-0.0095375
-0.0447684,-0.00148943,-1.48943,-9.79545,-0.00979545
-0.050765,-0.00154939,-1.54939,-10.1898,-0.0101898
-0.0567282,-0.00156117,-1.56117,-10.2672,-0.0102672
-0.06275706,-0.00167067,-1.67067,-10.9874,-0.0109874
-0.0687787,-0.00171941,-1.71941,-11.308,-0.011308
-0.0747088,-0.00182995,-1.82995,-12.0349,-0.0120349
-0.0807145,-0.00193998,-1.93998,-12.7585,-0.0127585
-0.0867841,-0.00203452,-2.03452,-13.3803,-0.0133803
-0.0926915,-0.00218362,-2.18362,-14.3609,-0.0143609
-0.0987197,-0.00233067,-2.33067,-15.328,-0.015328
-0.104671,-0.00254254,-2.54254,-16.7214,-0.0167214
-0.110691,-0.00277573,-2.77573,-18.255,-0.018255
-0.116655,-0.0030439,-3.0439,-20.0186,-0.0200186
-0.122684,-0.00331443,-3.31443,-21.7978,-0.0217978
-0.128631,-0.0036781,-3.6781,-24.1896,-0.0241896
-0.134625,-0.00399344,-3.99344,-26.2635,-0.0262635
-0.140636,-0.00433508,-4.33508,-28.5103,-0.0285103
-0.146688,-0.00464891,-4.64891,-30.5743,-0.0305743
-0.152613,-0.00487836,-4.87836,-32.0833,-0.0320833
-0.158664,-0.0048995,-4.8995,-32.2223,-0.0322223
-0.164689,-0.00469779,-4.69779,-30.8957,-0.0308957
-0.170714,-0.00424146,-4.24146,-27.8946,-0.0278946
-0.176731,-0.00365118,-3.65118,-24.0125,-0.0240125
-0.182747,-0.00312783,-3.12783,-20.5707,-0.0205707
-0.188703,-0.00271274,-2.71274,-17.8408,-0.0178408
-0.194664,-0.0024098,-2.4098,-15.8484,-0.0158484
-0.195352,-0.00243412,-2.43412,-16.0084,-0.0160084