File: literature/rawdata/engstfeld_2018_polycrystalline_17743/1708030001Cu100_UHV_C01_cycle31.csv
E,<I>,I (raw),j,j
V vs. RHE,mA,\g(m)A,\g(m)A/cm\+(-2),mA/cm\+(-2)
-0.195448,-0.00257017,-2.57017,-16.9031,-0.0169031
-0.197632,-0.000505034,-0.505034,-3.32143,-0.00332143
-0.190151,0.000132559,0.132559,0.871795,0.000871795
-0.183222,0.000546828,0.546828,3.59629,0.00359629
-0.176189,0.000946881,0.946881,6.22731,0.00622731
-0.16926,0.00146201,1.46201,9.6151,0.0096151
-0.162263,0.00196262,1.96262,12.9075,0.0129075
-0.155264,0.00238384,2.38384,15.6777,0.0156777
-0.148324,0.00269778,2.69778,17.7424,0.0177424
-0.141324,0.00288836,2.88836,18.9957,0.0189957
-0.134323,0.00293904,2.93904,19.329,0.019329
-0.127327,0.00288894,2.88894,18.9995,0.0189995
-0.120326,0.00275851,2.75851,18.1418,0.0181418
-0.113267,0.0025157,2.5157,16.5449,0.0165449
-0.106326,0.00229038,2.29038,15.063,0.015063
-0.09937121,0.00200569,2.00569,13.1907,0.0131907
-0.0922686,0.00176531,1.76531,11.6099,0.0116099
-0.0853385,0.00154358,1.54358,10.1516,0.0101516
-0.0783712,0.00135134,1.35134,8.88727,0.00888727
-0.0713448,0.0011828,1.1828,7.77888,0.00777888
-0.0643504,0.00104702,1.04702,6.88589,0.00688589
-0.0573458,0.000950382,0.950382,6.25033,0.00625033
-0.0503187,0.000866791,0.866791,5.70058,0.00570058
-0.0433474,0.000766572,0.766572,5.04148,0.00504148
-0.0363655,0.000744454,0.744454,4.89602,0.00489602
-0.0293348,0.000658371,0.658371,4.32987,0.00432987
-0.02236761,0.000565392,0.565392,3.71838,0.00371838
-0.0154048,0.000524763,0.524763,3.45118,0.00345118
-0.00837753,0.00046443,0.46443,3.05439,0.00305439
-0.00141623,0.000430909,0.430909,2.83394,0.00283394
0.00561807,0.000419611,0.419611,2.75964,0.00275964
0.0125925,0.000382802,0.382802,2.51755,0.00251755
0.0195545,0.000385003,0.385003,2.53203,0.00253203
0.0265858,0.000346124,0.346124,2.27634,0.00227634
0.03354007,0.000371716,0.371716,2.44465,0.00244465
0.0405434,0.000411947,0.411947,2.70923,0.00270923
0.0475709,0.000439926,0.439926,2.89324,0.00289324
0.0545617,0.000433375,0.433375,2.85016,0.00285016
0.0615631,0.000371928,0.371928,2.44604,0.00244604
0.0685638,0.000321037,0.321037,2.11135,0.00211135
0.0755597,0.000310269,0.310269,2.04053,0.00204053
0.08252082,0.000312205,0.312205,2.05327,0.00205327
0.089557,0.000346655,0.346655,2.27983,0.00227983
0.0965319,0.000281283,0.281283,1.8499,0.0018499
0.103527,0.000286322,0.286322,1.88304,0.00188304
0.11051,0.000281973,0.281973,1.85444,0.00185444
0.117551,0.000298866,0.298866,1.96554,0.00196554
0.124504,0.000275555,0.275555,1.81223,0.00181223
0.131474,0.000264814,0.264814,1.74159,0.00174159
0.138499,0.000275581,0.275581,1.8124,0.0018124
0.145528,0.000263541,0.263541,1.73322,0.00173322
0.152471,0.000272664,0.272664,1.79322,0.00179322
0.159543,0.000242246,0.242246,1.59317,0.00159317
0.16648,0.000293085,0.293085,1.92751,0.00192751
0.173487,0.000246277,0.246277,1.61968,0.00161968
0.180531,0.000241503,0.241503,1.58828,0.00158828
0.18743,0.000262215,0.262215,1.7245,0.0017245
0.194488,0.000221772,0.221772,1.45852,0.00145852
0.2015,0.000211668,0.211668,1.39207,0.00139207
0.208455,0.000219571,0.219571,1.44404,0.00144404
0.21544,0.000216734,0.216734,1.42538,0.00142538
0.22247,0.000209122,0.209122,1.37532,0.00137532
0.2294094,0.000206603,0.206603,1.35876,0.00135876
0.2364352,0.000215752,0.215752,1.41893,0.00141893
0.2433982,0.000234369,0.234369,1.54137,0.00154137
0.250399,0.000229224,0.229224,1.50753,0.00150753
0.257449,0.000221931,0.221931,1.45957,0.00145957
0.264442,0.000252509,0.252509,1.66066,0.00166066
0.2713953,0.00024511,0.24511,1.612,0.001612
0.278354,0.000278976,0.278976,1.83473,0.00183473
0.285392,0.000285553,0.285553,1.87798,0.00187798
0.292373,0.000304727,0.304727,2.00408,0.00200408
0.299425,0.000286693,0.286693,1.88548,0.00188548
0.306384,0.000348034,0.348034,2.2889,0.0022889
0.313404,0.000318464,0.318464,2.09443,0.00209443
0.3203519,0.000369356,0.369356,2.42913,0.00242913
0.327321,0.000374209,0.374209,2.46104,0.00246104
0.33439,0.00040895,0.40895,2.68952,0.00268952
0.341362,0.000475834,0.475834,3.12939,0.00312939
0.348336,0.000533117,0.533117,3.50612,0.00350612
0.355333,0.000667785,0.667785,4.39179,0.00439179
0.362281,0.000805,0.805,5.2942,0.0052942
0.369307,0.000833005,0.833005,5.47838,0.00547838
0.376302,0.000908905,0.908905,5.97755,0.00597755
0.383282,0.000984725,0.984725,6.47619,0.00647619
0.390258,0.00112817,1.12817,7.41959,0.00741959
0.395896,0.00125109,1.25109,8.228,0.008228
0.398996,-0.000716823,-0.716823,-4.71429,-0.00471429
0.391709,-0.00142652,-1.42652,-9.38175,-0.00938175
0.3847785,-0.0013171,-1.3171,-8.66212,-0.00866212
0.377785,-0.00129154,-1.29154,-8.49399,-0.00849399
0.370779,-0.001219,-1.219,-8.01697,-0.00801697
0.363813,-0.00120864,-1.20864,-7.94877,-0.00794877
0.35683,-0.00116456,-1.16456,-7.6589,-0.0076589
0.349841,-0.00114602,-1.14602,-7.53699,-0.00753699
0.342822,-0.000984648,-0.984648,-6.47568,-0.00647568
0.335848,-0.000930414,-0.930414,-6.11901,-0.00611901
0.328851,-0.000882864,-0.882864,-5.80629,-0.00580629
0.321847,-0.000871832,-0.871832,-5.73373,-0.00573373
0.314873,-0.00081858,-0.81858,-5.38351,-0.00538351
0.30785,-0.000846558,-0.846558,-5.56752,-0.00556752
0.300889,-0.000809536,-0.809536,-5.32404,-0.00532404
0.293916,-0.000809881,-0.809881,-5.3263,-0.0053263
0.286887,-0.000805399,-0.805399,-5.29683,-0.00529683
0.279905,-0.000784979,-0.784979,-5.16253,-0.00516253
0.272911,-0.000810809,-0.810809,-5.33241,-0.00533241
0.265893,-0.000800467,-0.800467,-5.26439,-0.00526439
0.258976,-0.000805983,-0.805983,-5.30067,-0.00530067
0.2519477,-0.000812241,-0.812241,-5.34183,-0.00534183
0.244918,-0.00081911,-0.81911,-5.387,-0.005387
0.237983,-0.000822054,-0.822054,-5.40636,-0.00540636
0.230893,-0.000820569,-0.820569,-5.39659,-0.00539659
0.22394,-0.000819269,-0.819269,-5.38805,-0.00538805
0.216983,-0.000858863,-0.858863,-5.64844,-0.00564844
0.209943,-0.000851464,-0.851464,-5.59978,-0.00559978
0.202979,-0.00084563,-0.84563,-5.56141,-0.00556141
0.195979,-0.000907475,-0.907475,-5.96814,-0.00596814
0.18899,-0.000890077,-0.890077,-5.85373,-0.00585373
0.18198,-0.00090835,-0.90835,-5.9739,-0.0059739
0.17504,-0.000904372,-0.904372,-5.94774,-0.00594774
0.168024,-0.000944152,-0.944152,-6.20936,-0.00620936
0.161017,-0.00095163,-0.95163,-6.25854,-0.00625854
0.153995,-0.000955131,-0.955131,-6.28156,-0.00628156
0.147,-0.000974278,-0.974278,-6.40749,-0.00640749
0.140068,-0.00099987,-0.99987,-6.5758,-0.0065758
0.1330675,-0.00100801,-1.00801,-6.62934,-0.00662934
0.1260417,-0.000998438,-0.998438,-6.56638,-0.00656638
0.119017,-0.00103997,-1.03997,-6.83951,-0.00683951
0.112024,-0.00103649,-1.03649,-6.81666,-0.00681666
0.105084,-0.00107012,-1.07012,-7.03782,-0.00703782
0.0980526,-0.00106288,-1.06288,-6.9902,-0.0069902
0.0910014,-0.00107723,-1.07723,-7.08456,-0.00708456
0.0840239,-0.00110661,-1.10661,-7.27781,-0.00727781
0.0770556,-0.00109136,-1.09136,-7.17752,-0.00717752
0.0700608,-0.00113279,-1.13279,-7.44995,-0.00744995
0.0631171,-0.00113658,-1.13658,-7.47489,-0.00747489
0.056072,-0.00115788,-1.15788,-7.61495,-0.00761495
0.0491063,-0.00116077,-1.16077,-7.63396,-0.00763396
0.0421114,-0.00120614,-1.20614,-7.93238,-0.00793238
0.035096,-0.00119954,-1.19954,-7.88895,-0.00788895
0.0281245,-0.00123526,-1.23526,-8.12388,-0.00812388
0.021113,-0.00126717,-1.26717,-8.3337,-0.0083337
0.014158,-0.00128793,-1.28793,-8.47027,-0.00847027
0.00714602,-0.00132707,-1.32707,-8.7277,-0.0087277
0.000127847,-0.00134105,-1.34105,-8.81962,-0.00881962
-0.00685425,-0.00135089,-1.35089,-8.88432,-0.00888432
-0.0138442,-0.00140417,-1.40417,-9.23472,-0.00923472
-0.02083414,-0.00142745,-1.42745,-9.38785,-0.00938785
-0.02785486,-0.00146949,-1.46949,-9.6643,-0.0096643
-0.0348461,-0.00152558,-1.52558,-10.0332,-0.0100332
-0.0418568,-0.00158172,-1.58172,-10.4024,-0.0104024
-0.0488264,-0.00161479,-1.61479,-10.6199,-0.0106199
-0.0557909,-0.0016748,-1.6748,-11.0146,-0.0110146
-0.0627883,-0.00175336,-1.75336,-11.5312,-0.0115312
-0.06982,-0.00188927,-1.88927,-12.4251,-0.0124251
-0.0768577,-0.00198639,-1.98639,-13.0638,-0.0130638
-0.0838133,-0.00211893,-2.11893,-13.9355,-0.0139355
-0.09076374,-0.00228216,-2.28216,-15.009,-0.015009
-0.0977609,-0.00246932,-2.46932,-16.2398,-0.0162398
-0.104801,-0.00267975,-2.67975,-17.6238,-0.0176238
-0.111754,-0.00295898,-2.95898,-19.4602,-0.0194602
-0.11877,-0.00331517,-3.31517,-21.8027,-0.0218027
-0.125717,-0.00360262,-3.60262,-23.6932,-0.0236932
-0.132725,-0.0039979,-3.9979,-26.2928,-0.0262928
-0.139766,-0.00436464,-4.36464,-28.7047,-0.0287047
-0.1466984,-0.0046927,-4.6927,-30.8622,-0.0308622
-0.153714,-0.00491698,-4.91698,-32.3372,-0.0323372
-0.160736,-0.00490361,-4.90361,-32.2493,-0.0322493
-0.167827,-0.00446974,-4.46974,-29.3959,-0.0293959
-0.174768,-0.00385146,-3.85146,-25.3297,-0.0253297
-0.181813,-0.00327836,-3.27836,-21.5606,-0.0215606
-0.188782,-0.0028206,-2.8206,-18.5501,-0.0185501
-0.195287,-0.00249904,-2.49904,-16.4353,-0.0164353
-0.195348,-0.00246467,-2.46467,-16.2093,-0.0162093