File: literature/rawdata/engstfeld_2018_polycrystalline_17743/1708030001Cu100_UHV_C01_cycle35.csv
E,<I>,I (raw),j,j
V vs. RHE,mA,\g(m)A,\g(m)A/cm\+(-2),mA/cm\+(-2)
-0.195413,-0.00238352,-2.38352,-15.6756,-0.0156756
-0.198673,-0.00120959,-1.20959,-7.95505,-0.00795505
-0.1944,0.00024275,0.24275,1.59648,0.00159648
-0.189194,0.000434993,0.434993,2.8608,0.0028608
-0.1842346,0.000747929,0.747929,4.91886,0.00491886
-0.179249,0.00101742,1.01742,6.69125,0.00669125
-0.17426,0.00134328,1.34328,8.83425,0.00883425
-0.169272,0.00174391,1.74391,11.4691,0.0114691
-0.164338,0.00204848,2.04848,13.4721,0.0134721
-0.159312,0.0024159,2.4159,15.8885,0.0158885
-0.154311,0.0026601,2.6601,17.4945,0.0174945
-0.149293,0.00290657,2.90657,19.1155,0.0191155
-0.144359,0.00304146,3.04146,20.0026,0.0200026
-0.1393863,0.00308089,3.08089,20.2619,0.0202619
-0.134339,0.00309227,3.09227,20.3368,0.0203368
-0.129367,0.00302963,3.02963,19.9248,0.0199248
-0.124345,0.0029411,2.9411,19.3426,0.0193426
-0.119368,0.00279654,2.79654,18.3919,0.0183919
-0.114327,0.0026134,2.6134,17.1874,0.0171874
-0.1092931,0.00243542,2.43542,16.0169,0.0160169
-0.1043519,0.0022615,2.2615,14.8731,0.0148731
-0.0992921,0.00203664,2.03664,13.3943,0.0133943
-0.0942869,0.00185113,1.85113,12.1743,0.0121743
-0.0893343,0.00167255,1.67255,10.9998,0.0109998
-0.0843022,0.00151878,1.51878,9.98852,0.00998852
-0.07933,0.00138817,1.38817,9.12953,0.00912953
-0.0743614,0.00126475,1.26475,8.31782,0.00831782
-0.0693654,0.00116273,1.16273,7.64685,0.00764685
-0.0643487,0.0010706,1.0706,7.04094,0.00704094
-0.0593699,0.000960592,0.960592,6.31748,0.00631748
-0.0543376,0.000907022,0.907022,5.96517,0.00596517
-0.0493741,0.000852974,0.852974,5.60971,0.00560971
-0.0443554,0.000797335,0.797335,5.2438,0.0052438
-0.0393791,0.000746996,0.746996,4.91273,0.00491273
-0.034403,0.000701174,0.701174,4.61138,0.00461138
-0.0293775,0.000656779,0.656779,4.31941,0.00431941
-0.0244356,0.000638931,0.638931,4.20203,0.00420203
-0.0193652,0.000587164,0.587164,3.86158,0.00386158
-0.0143637,0.000510734,0.510734,3.35892,0.00335892
-0.00938216,0.000472598,0.472598,3.10811,0.00310811
-0.00441059,0.000464669,0.464669,3.05596,0.00305596
0.000578592,0.000453981,0.453981,2.98568,0.00298568
0.00559536,0.000456951,0.456951,3.00521,0.00300521
0.0105669,0.000424995,0.424995,2.79504,0.00279504
0.0155918,0.000395531,0.395531,2.60127,0.00260127
0.0206153,0.000410409,0.410409,2.69912,0.00269912
0.0255542,0.000390943,0.390943,2.5711,0.0025711
0.0305684,0.000406325,0.406325,2.67226,0.00267226
0.0355576,0.000399138,0.399138,2.62499,0.00262499
0.0405425,0.000453636,0.453636,2.98341,0.00298341
0.0455444,0.000457455,0.457455,3.00852,0.00300852
0.0506155,0.000445256,0.445256,2.92829,0.00292829
0.0555578,0.000408022,0.408022,2.68342,0.00268342
0.0605788,0.000390492,0.390492,2.56813,0.00256813
0.065573,0.000358275,0.358275,2.35625,0.00235625
0.0705557,0.000338991,0.338991,2.22942,0.00222942
0.0755158,0.000335702,0.335702,2.2078,0.0022078
0.0805332,0.000358191,0.358191,2.3557,0.0023557
0.0855674,0.000334933,0.334933,2.20274,0.00220274
0.0905572,0.000330929,0.330929,2.1764,0.0021764
0.0955307,0.000316024,0.316024,2.07838,0.00207838
0.100536,0.00032398,0.32398,2.13071,0.00213071
0.105477,0.000316687,0.316687,2.08274,0.00208274
0.110508,0.000299688,0.299688,1.97094,0.00197094
0.1154944,0.000309447,0.309447,2.03513,0.00203513
0.120522,0.000319498,0.319498,2.10123,0.00210123
0.125477,0.000292395,0.292395,1.92298,0.00192298
0.130454,0.000333315,0.333315,2.1921,0.0021921
0.135508,0.00029746,0.29746,1.95629,0.00195629
0.14045,0.000294278,0.294278,1.93536,0.00193536
0.145495,0.000269694,0.269694,1.77368,0.00177368
0.15043,0.000285022,0.285022,1.87449,0.00187449
0.155484,0.000296002,0.296002,1.9467,0.0019467
0.160474,0.000279082,0.279082,1.83542,0.00183542
0.165501,0.000258264,0.258264,1.69851,0.00169851
0.170448,0.000269694,0.269694,1.77368,0.00177368
0.175487,0.00025349,0.25349,1.66712,0.00166712
0.180449,0.00026012,0.26012,1.71072,0.00171072
0.185477,0.000253013,0.253013,1.66398,0.00166398
0.19045,0.000241831,0.241831,1.59044,0.00159044
0.195441,0.000262878,0.262878,1.72886,0.00172886
0.200427,0.000259165,0.259165,1.70444,0.00170444
0.205458,0.000215461,0.215461,1.41701,0.00141701
0.210418,0.000237233,0.237233,1.5602,0.0015602
0.215435,0.000244155,0.244155,1.60572,0.00160572
0.220426,0.000232089,0.232089,1.52637,0.00152637
0.225435,0.000279215,0.279215,1.8363,0.0018363
0.230389,0.000246568,0.246568,1.62159,0.00162159
0.235407,0.000218749,0.218749,1.43864,0.00143864
0.240383,0.000244367,0.244367,1.60712,0.00160712
0.245391,0.000263939,0.263939,1.73584,0.00173584
0.247595,0.00020891,0.20891,1.37393,0.00137393
0.24816,-0.000540146,-0.540146,-3.55235,-0.00355235
0.242819,-0.000674868,-0.674868,-4.43837,-0.00443837
0.237814,-0.000664976,-0.664976,-4.37331,-0.00437331
0.2328182,-0.000689401,-0.689401,-4.53395,-0.00453395
0.227859,-0.000731674,-0.731674,-4.81196,-0.00481196
0.222855,-0.000726608,-0.726608,-4.77865,-0.00477865
0.217927,-0.000729366,-0.729366,-4.79679,-0.00479679
0.212873,-0.000738065,-0.738065,-4.854,-0.004854
0.207929,-0.000730852,-0.730852,-4.80656,-0.00480656
0.202904,-0.000768165,-0.768165,-5.05195,-0.00505195
0.1978844,-0.000794049,-0.794049,-5.22218,-0.00522218
0.192912,-0.000799353,-0.799353,-5.25706,-0.00525706
0.187916,-0.000786703,-0.786703,-5.17387,-0.00517387
0.182928,-0.0007727,-0.7727,-5.08178,-0.00508178
0.177953,-0.000821237,-0.821237,-5.40099,-0.00540099
0.172906,-0.000841732,-0.841732,-5.53577,-0.00553577
0.167934,-0.000832953,-0.832953,-5.47804,-0.00547804
0.162943,-0.000853003,-0.853003,-5.6099,-0.0056099
0.157937,-0.000877958,-0.877958,-5.77402,-0.00577402
0.152915,-0.000903311,-0.903311,-5.94076,-0.00594076
0.147912,-0.000895912,-0.895912,-5.8921,-0.0058921
0.142936,-0.000916067,-0.916067,-6.02465,-0.00602465
0.1379907,-0.000909278,-0.909278,-5.98,-0.00598
0.132982,-0.0008848,-0.8848,-5.81902,-0.00581902
0.12795,-0.000893419,-0.893419,-5.8757,-0.0058757
0.122997,-0.000952399,-0.952399,-6.2636,-0.0062636
0.117979,-0.000950145,-0.950145,-6.24877,-0.00624877
0.112988,-0.000950198,-0.950198,-6.24912,-0.00624912
0.107957,-0.000954733,-0.954733,-6.27895,-0.00627895
0.103025,-0.000977991,-0.977991,-6.43191,-0.00643191
0.09801,-0.000952293,-0.952293,-6.2629,-0.0062629
0.0930166,-0.000958101,-0.958101,-6.3011,-0.0063011
0.0880093,-0.0010179,-1.0179,-6.6944,-0.0066944
0.0830087,-0.00102003,-1.02003,-6.70835,-0.00670835
0.0779752,-0.00102318,-1.02318,-6.72911,-0.00672911
0.0730331,-0.00102676,-1.02676,-6.75265,-0.00675265
0.068035,-0.00103851,-1.03851,-6.82992,-0.00682992
0.0630452,-0.00106026,-1.06026,-6.97293,-0.00697293
0.0580301,-0.00108288,-1.08288,-7.12171,-0.00712171
0.0530573,-0.00107505,-1.07505,-7.07022,-0.00707022
0.0480789,-0.00106405,-1.06405,-6.99788,-0.00699788
0.0430828,-0.00109871,-1.09871,-7.22583,-0.00722583
0.0380666,-0.00112215,-1.12215,-7.38001,-0.00738001
0.0330473,-0.00114722,-1.14722,-7.54483,-0.00754483
0.0281023,-0.00114072,-1.14072,-7.5021,-0.0075021
0.023035,-0.00114364,-1.14364,-7.52129,-0.00752129
0.0180851,-0.00118864,-1.18864,-7.81727,-0.00781727
0.0130808,-0.00121789,-1.21789,-8.00964,-0.00800964
0.00812518,-0.00120023,-1.20023,-7.89348,-0.00789348
0.00307912,-0.00124545,-1.24545,-8.19086,-0.00819086
-0.00189541,-0.00124749,-1.24749,-8.20429,-0.00820429
-0.00692683,-0.00124685,-1.24685,-8.2001,-0.0082001
-0.0118689,-0.00122853,-1.22853,-8.07958,-0.00807958
-0.0169277,-0.00126311,-1.26311,-8.30702,-0.00830702
-0.0218884,-0.00131599,-1.31599,-8.65479,-0.00865479
-0.0268577,-0.0013554,-1.3554,-8.91397,-0.00891397
-0.0318642,-0.00136296,-1.36296,-8.96368,-0.00896368
-0.0368738,-0.00139112,-1.39112,-9.14891,-0.00914891
-0.0418783,-0.00145426,-1.45426,-9.56418,-0.00956418
-0.0468577,-0.00145668,-1.45668,-9.58005,-0.00958005
-0.0518435,-0.00151821,-1.51821,-9.98476,-0.00998476
-0.0568844,-0.0015696,-1.5696,-10.3227,-0.0103227
-0.0618662,-0.00159081,-1.59081,-10.4622,-0.0104622
-0.0668908,-0.00166722,-1.66722,-10.9647,-0.0109647
-0.0718458,-0.00177306,-1.77306,-11.6608,-0.0116608
-0.0768851,-0.00179881,-1.79881,-11.8302,-0.0118302
-0.0818074,-0.00190852,-1.90852,-12.5517,-0.0125517
-0.0868363,-0.00204632,-2.04632,-13.4579,-0.0134579
-0.0917472,-0.0021559,-2.1559,-14.1786,-0.0141786
-0.0967586,-0.00228185,-2.28185,-15.0069,-0.0150069
-0.101801,-0.00241678,-2.41678,-15.8943,-0.0158943
-0.1068,-0.00259409,-2.59409,-17.0604,-0.0170604
-0.111745,-0.00282036,-2.82036,-18.5485,-0.0185485
-0.116731,-0.00303804,-3.03804,-19.9801,-0.0199801
-0.121779,-0.00327796,-3.27796,-21.558,-0.021558
-0.126766,-0.0035469,-3.5469,-23.3267,-0.0233267
-0.1317682,-0.00380513,-3.80513,-25.025,-0.025025
-0.136709,-0.00405924,-4.05924,-26.6962,-0.0266962
-0.141721,-0.0043957,-4.3957,-28.909,-0.028909
-0.146704,-0.00465061,-4.65061,-30.5854,-0.0305854
-0.1516825,-0.0048254,-4.8254,-31.735,-0.031735
-0.156711,-0.00493498,-4.93498,-32.4557,-0.0324557
-0.16177,-0.0048481,-4.8481,-31.8843,-0.0318843
-0.1668389,-0.00454872,-4.54872,-29.9153,-0.0299153
-0.171817,-0.00411111,-4.11111,-27.0374,-0.0270374
-0.1768433,-0.00359682,-3.59682,-23.6551,-0.0236551
-0.181823,-0.00318398,-3.18398,-20.9399,-0.0209399
-0.1867899,-0.00277859,-2.77859,-18.2738,-0.0182738
-0.1917899,-0.00251729,-2.51729,-16.5553,-0.0165553
-0.195371,-0.00236156,-2.36156,-15.5312,-0.0155312