File: literature/rawdata/engstfeld_2018_polycrystalline_17743/engstfeld_2018_polycrystalline_17743_f4b_1.csv
E,<I>,I (raw),j,j
V vs. RHE,mA,\g(m)A,\g(m)A cm\+(-2),mA cm\+(-2)
0.495555,0.0514638,51.4638,182.016,0.182016
0.498421,0.00250762,2.50762,8.86889,0.00886889
0.4905557,-0.00367688,-3.67688,-13.0043,-0.0130043
0.483668,-0.00818036,-8.18036,-28.9321,-0.0289321
0.476798,-0.0204866,-20.4866,-72.4565,-0.0724565
0.46997,-0.0429759,-42.9759,-151.996,-0.151996
0.462635,-0.0506987,-50.6987,-179.31,-0.17931
0.455516,-0.0393825,-39.3825,-139.287,-0.139287
0.448358,-0.0267966,-26.7966,-94.7735,-0.0947735
0.441549,-0.0145318,-14.5318,-51.3956,-0.0513956
0.4346,-0.00908579,-9.08579,-32.1344,-0.0321344
0.427667,-0.00671778,-6.71778,-23.7593,-0.0237593
0.420666,-0.00557754,-5.57754,-19.7265,-0.0197265
0.41356,-0.00481369,-4.81369,-17.0249,-0.0170249
0.4066655,-0.00454963,-4.54963,-16.091,-0.016091
0.399686,-0.004096,-4.096,-14.4866,-0.0144866
0.392668,-0.00353849,-3.53849,-12.5149,-0.0125149
0.3856881,-0.00309379,-3.09379,-10.942,-0.010942
0.378697,-0.00275325,-2.75325,-9.73764,-0.00973764
0.371683,-0.00246422,-2.46422,-8.71539,-0.00871539
0.364693,-0.00224249,-2.24249,-7.9312,-0.0079312
0.357692,-0.00207908,-2.07908,-7.35323,-0.00735323
0.350736,-0.00193962,-1.93962,-6.86,-0.00686
0.343708,-0.00175795,-1.75795,-6.21747,-0.00621747
0.336733,-0.00168234,-1.68234,-5.95007,-0.00595007
0.329738,-0.0016143,-1.6143,-5.70942,-0.00570942
0.3227441,-0.00154819,-1.54819,-5.47559,-0.00547559
0.315743,-0.00150654,-1.50654,-5.3283,-0.0053283
0.308734,-0.00147933,-1.47933,-5.23206,-0.00523206
0.301741,-0.00143837,-1.43837,-5.0872,-0.0050872
0.294748,-0.00142324,-1.42324,-5.03368,-0.00503368
0.28775,-0.00140777,-1.40777,-4.97897,-0.00497897
0.2807577,-0.00138765,-1.38765,-4.90781,-0.00490781
0.273765,-0.00137883,-1.37883,-4.8766,-0.0048766
0.266761,-0.00137294,-1.37294,-4.85579,-0.00485579
0.259745,-0.00136738,-1.36738,-4.83611,-0.00483611
0.252765,-0.00136335,-1.36335,-4.82187,-0.00482187
0.245778,-0.00136596,-1.36596,-4.83108,-0.00483108
0.238767,-0.00136763,-1.36763,-4.837,-0.004837
0.231786,-0.00138362,-1.38362,-4.89355,-0.00489355
0.224779,-0.00137923,-1.37923,-4.87801,-0.00487801
0.217777,-0.00138859,-1.38859,-4.91112,-0.00491112
0.210779,-0.00139836,-1.39836,-4.9457,-0.0049457
0.203778,-0.00141777,-1.41777,-5.01432,-0.00501432
0.1967847,-0.00141558,-1.41558,-5.00658,-0.00500658
0.18979,-0.00144146,-1.44146,-5.09811,-0.00509811
0.18279,-0.00145588,-1.45588,-5.14912,-0.00514912
0.175786,-0.00147545,-1.47545,-5.21834,-0.00521834
0.168808,-0.00149708,-1.49708,-5.29485,-0.00529485
0.161806,-0.00151757,-1.51757,-5.36729,-0.00536729
0.154811,-0.00153647,-1.53647,-5.43416,-0.00543416
0.147814,-0.00156125,-1.56125,-5.52179,-0.00552179
0.1408253,-0.00159038,-1.59038,-5.62483,-0.00562483
0.1338,-0.00160874,-1.60874,-5.68976,-0.00568976
0.1267992,-0.00163379,-1.63379,-5.77836,-0.00577836
0.119772,-0.00167166,-1.67166,-5.91227,-0.00591227
0.112793,-0.00170434,-1.70434,-6.02786,-0.00602786
0.1058458,-0.00173339,-1.73339,-6.13062,-0.00613062
0.0988224,-0.00176751,-1.76751,-6.25129,-0.00625129
0.0918388,-0.00180866,-1.80866,-6.39683,-0.00639683
0.08482682,-0.00184875,-1.84875,-6.53861,-0.00653861
0.0778638,-0.00191835,-1.91835,-6.78476,-0.00678476
0.0708485,-0.00194003,-1.94003,-6.86147,-0.00686147
0.0638435,-0.00199575,-1.99575,-7.05854,-0.00705854
0.0568415,-0.00204742,-2.04742,-7.24126,-0.00724126
0.0498571,-0.00210456,-2.10456,-7.44336,-0.00744336
0.042843,-0.00216895,-2.16895,-7.67109,-0.00767109
0.03586388,-0.00223776,-2.23776,-7.91444,-0.00791444
0.0288474,-0.00231076,-2.31076,-8.17265,-0.00817265
0.0218444,-0.00239545,-2.39545,-8.47219,-0.00847219
0.01485445,-0.00248382,-2.48382,-8.78473,-0.00878473
0.00785583,-0.00257597,-2.57597,-9.11062,-0.00911062
0.000847669,-0.00268744,-2.68744,-9.50487,-0.00950487
-0.00616177,-0.00279416,-2.79416,-9.88233,-0.00988233
-0.0131532,-0.00293178,-2.93178,-10.3691,-0.0103691
-0.0201537,-0.00306558,-3.06558,-10.8423,-0.0108423
-0.0271684,-0.00322621,-3.22621,-11.4104,-0.0114104
-0.03410808,-0.00345293,-3.45293,-12.2122,-0.0122122
-0.0411404,-0.00361094,-3.61094,-12.7711,-0.0127711
-0.0481312,-0.00382251,-3.82251,-13.5194,-0.0135194
-0.0551014,-0.00410989,-4.10989,-14.5358,-0.0145358
-0.0621125,-0.00437765,-4.37765,-15.4828,-0.0154828
-0.0691137,-0.00472757,-4.72757,-16.7204,-0.0167204
-0.0761049,-0.00516449,-5.16449,-18.2656,-0.0182656
-0.0831075,-0.00558464,-5.58464,-19.7516,-0.0197516
-0.0900225,-0.00617916,-6.17916,-21.8543,-0.0218543
-0.0970846,-0.00671298,-6.71298,-23.7423,-0.0237423
-0.10408,-0.00733118,-7.33118,-25.9287,-0.0259287
-0.111063,-0.00802172,-8.02172,-28.371,-0.028371
-0.11806,-0.00873921,-8.73921,-30.9086,-0.0309086
-0.1249821,-0.0095988,-9.5988,-33.9488,-0.0339488
-0.132038,-0.0101893,-10.1893,-36.0372,-0.0360372
-0.139024,-0.0108564,-10.8564,-38.3968,-0.0383968
-0.146042,-0.0113622,-11.3622,-40.1856,-0.0401856
-0.152997,-0.011618,-11.618,-41.0904,-0.0410904
-0.159993,-0.0113007,-11.3007,-39.9682,-0.0399682
-0.16698,-0.0100262,-10.0262,-35.4605,-0.0354605
-0.173965,-0.00785873,-7.85873,-27.7946,-0.0277946
-0.180941,-0.00571253,-5.71253,-20.204,-0.020204
-0.187902,-0.00412962,-4.12962,-14.6055,-0.0146055
-0.194978,-0.00303079,-3.03079,-10.7192,-0.0107192
-0.198207,0.000100569,0.100569,0.355689,0.000355689
-0.191617,0.00205227,2.05227,7.25841,0.00725841
-0.1846569,0.00281407,2.81407,9.95275,0.00995275
-0.1776727,0.003937,3.937,13.9243,0.0139243
-0.1707876,0.00533848,5.33848,18.881,0.018881
-0.163766,0.00653362,6.53362,23.1079,0.0231079
-0.156824,0.00762755,7.62755,26.977,0.026977
-0.149825,0.00854394,8.54394,30.218,0.030218
-0.142819,0.00886369,8.86369,31.3489,0.0313489
-0.135832,0.00899484,8.99484,31.8127,0.0318127
-0.12887,0.00887102,8.87102,31.3748,0.0313748
-0.1218586,0.00858496,8.58496,30.3631,0.0303631
-0.114887,0.00819965,8.19965,29.0003,0.0290003
-0.107897,0.00769633,7.69633,27.2202,0.0272202
-0.100878,0.00716731,7.16731,25.3492,0.0253492
-0.09388,0.006574,6.574,23.2508,0.0232508
-0.0868795,0.005998,5.998,21.2136,0.0212136
-0.0798894,0.00542165,5.42165,19.1752,0.0191752
-0.0729208,0.00490176,4.90176,17.3364,0.0173364
-0.0659379,0.00443354,4.43354,15.6804,0.0156804
-0.0589173,0.00399838,3.99838,14.1414,0.0141414
-0.0519549,0.00362048,3.62048,12.8048,0.0128048
-0.0449554,0.00330924,3.30924,11.7041,0.0117041
-0.0379695,0.00302857,3.02857,10.7114,0.0107114
-0.0309961,0.00277956,2.77956,9.8307,0.0098307
-0.0239912,0.00255364,2.55364,9.03164,0.00903164
-0.01699,0.00236211,2.36211,8.35425,0.00835425
-0.0099799,0.00218284,2.18284,7.7202,0.0077202
-0.00299057,0.00202533,2.02533,7.16314,0.00716314
0.00409429,0.00177964,1.77964,6.29419,0.00629419
0.0110051,0.00175216,1.75216,6.197,0.006197
0.0180181,0.00162032,1.62032,5.73072,0.00573072
0.0249825,0.00151054,1.51054,5.34244,0.00534244
0.0319888,0.00140497,1.40497,4.96908,0.00496908
0.03888705,0.0013291,1.3291,4.70073,0.00470073
0.04598137,0.00122873,1.22873,4.34574,0.00434574
0.052974,0.00114679,1.14679,4.05595,0.00405595
0.0599406,0.00107671,1.07671,3.80807,0.00380807
0.0669779,0.00101239,1.01239,3.58059,0.00358059
0.0739756,0.000952332,0.952332,3.36819,0.00336819
0.0809488,0.000897595,0.897595,3.17459,0.00317459
0.0879563,0.000848678,0.848678,3.00158,0.00300158
0.0949676,0.000801865,0.801865,2.83602,0.00283602
0.101946,0.000761169,0.761169,2.69209,0.00269209
0.108947,0.000724214,0.724214,2.56138,0.00256138
0.115968,0.00068758,0.68758,2.43182,0.00243182
0.122928,0.000652602,0.652602,2.30811,0.00230811
0.129933,0.000620848,0.620848,2.1958,0.0021958
0.136942,0.0005922,0.5922,2.09448,0.00209448
0.143937,0.000568933,0.568933,2.01219,0.00201219
0.1509487,0.000543725,0.543725,1.92303,0.00192303
0.157917,0.000520806,0.520806,1.84197,0.00184197
0.1649,0.000503444,0.503444,1.78057,0.00178057
0.171915,0.000481227,0.481227,1.70199,0.00170199
0.1789194,0.000467512,0.467512,1.65349,0.00165349
0.185913,0.000452264,0.452264,1.59956,0.00159956
0.192912,0.000442718,0.442718,1.56579,0.00156579
0.199903,0.00043049,0.43049,1.52255,0.00152255
0.206915,0.000423152,0.423152,1.49659,0.00149659
0.213907,0.000414565,0.414565,1.46622,0.00146622
0.220907,0.000411066,0.411066,1.45385,0.00145385
0.2279,0.000406075,0.406075,1.4362,0.0014362
0.234915,0.000404745,0.404745,1.43149,0.00143149
0.241912,0.000405941,0.405941,1.43572,0.00143572
0.248915,0.000408332,0.408332,1.44418,0.00144418
0.255803,0.000414139,0.414139,1.46472,0.00146472
0.262891,0.000424863,0.424863,1.50265,0.00150265
0.269871,0.000433613,0.433613,1.53359,0.00153359
0.276892,0.000445453,0.445453,1.57547,0.00157547
0.283815,0.000464357,0.464357,1.64233,0.00164233
0.290839,0.000483271,0.483271,1.70922,0.00170922
0.297875,0.000512036,0.512036,1.81096,0.00181096
0.3048667,0.00054448,0.54448,1.92571,0.00192571
0.311895,0.00058492,0.58492,2.06873,0.00206873
0.318877,0.00063489,0.63489,2.24546,0.00224546
0.32588,0.000689187,0.689187,2.4375,0.0024375
0.332871,0.00075495,0.75495,2.67009,0.00267009
0.339877,0.000835829,0.835829,2.95614,0.00295614
0.3468667,0.000930789,0.930789,3.29199,0.00329199
0.353869,0.00104769,1.04769,3.70543,0.00370543
0.36086,0.00124545,1.24545,4.40488,0.00440488
0.367848,0.00137692,1.37692,4.86985,0.00486985
0.374848,0.00155553,1.55553,5.50158,0.00550158
0.381785,0.0018057,1.8057,6.38637,0.00638637
0.388863,0.00200162,2.00162,7.07928,0.00707928
0.395858,0.00230082,2.30082,8.13749,0.00813749
0.402855,0.00263623,2.63623,9.32377,0.00932377
0.4098421,0.00303932,3.03932,10.7494,0.0107494
0.4168416,0.00341167,3.41167,12.0663,0.0120663
0.423862,0.00367969,3.67969,13.0142,0.0130142
0.430849,0.0038572,3.8572,13.642,0.013642
0.43782,0.00417891,4.17891,14.7799,0.0147799
0.444847,0.00481131,4.81131,17.0165,0.0170165
0.451852,0.00571673,5.71673,20.2188,0.0202188
0.45884,0.00743613,7.43613,26.2999,0.0262999
0.46581,0.0108839,10.8839,38.4939,0.0384939
0.472721,0.0183059,18.3059,64.7439,0.0647439
0.479494,0.0363572,36.3572,128.587,0.128587
0.486457,0.0591525,59.1525,209.209,0.209209
0.493866,0.0612109,61.2109,216.489,0.216489
0.495542,0.0519973,51.9973,183.903,0.183903