File: literature/rawdata/engstfeld_2018_polycrystalline_17743/engstfeld_2018_polycrystalline_17743_f4b_4.csv
E,<I>,I (raw),j,j
V vs. RHE,mA,\g(m)A,\g(m)A/cm\+(-2),mA/cm\+(-2)
-0.195302,-0.0042395,-4.2395,-27.8817,-0.0278817
-0.196541,-0.00133959,-1.33959,-8.81002,-0.00881002
-0.188178,-0.000810241,-0.810241,-5.32867,-0.00532867
-0.180188,0.000104103,0.104103,0.684651,0.000684651
-0.172223,0.00080073,0.80073,5.26612,0.00526612
-0.164254,0.00165695,1.65695,10.8972,0.0108972
-0.156298,0.00237697,2.37697,15.6325,0.0156325
-0.148242,0.00279699,2.79699,18.3949,0.0183949
-0.140292,0.00289353,2.89353,19.0297,0.0190297
-0.132186,0.00277618,2.77618,18.2579,0.0182579
-0.124286,0.00255187,2.55187,16.7828,0.0167828
-0.116285,0.00239601,2.39601,15.7577,0.0157577
-0.108233,0.00213553,2.13553,14.0447,0.0140447
-0.100277,0.00170013,1.70013,11.1811,0.0111811
-0.0922531,0.0015152,1.5152,9.96497,0.00996497
-0.08433,0.00115863,1.15863,7.61988,0.00761988
-0.0763013,0.00084226,0.84226,5.53925,0.00553925
-0.0682865,0.000675184,0.675184,4.44045,0.00444045
-0.0603482,0.000543221,0.543221,3.57257,0.00357257
-0.0523097,0.000337134,0.337134,2.21721,0.00221721
-0.0443571,0.00028672,0.28672,1.88566,0.00188566
-0.0363568,0.000187906,0.187906,1.23579,0.00123579
-0.0283553,8.69978e-05,0.0869978,0.572154,0.000572154
-0.0203446,8.4558e-05,0.084558,0.556108,0.000556108
-0.0123443,7.38488e-06,0.00738488,0.0485678,4.85678e-05
-0.0043864,1.44392e-05,0.0144392,0.0949615,9.49615e-05
0.00362261,-1.61383e-05,-0.0161383,-0.106136,-0.000106136
0.0116422,-3.25277e-05,-0.0325277,-0.213923,-0.000213923
0.0196016,-5.54675e-05,-0.0554675,-0.36479,-0.00036479
0.0276059,-3.88394e-05,-0.0388394,-0.255433,-0.000255433
0.0356164,-7.26789e-05,-0.0726789,-0.477984,-0.000477984
0.0435411,-1.81804e-05,-0.0181804,-0.119566,-0.000119566
0.0516163,-1.91616e-05,-0.0191616,-0.126019,-0.000126019
0.0596024,-7.81105e-06,-0.00781105,-0.0513706,-5.13706e-05
0.0675554,-3.74869e-05,-0.0374869,-0.246538,-0.000246538
0.0755816,-3.01409e-05,-0.0301409,-0.198226,-0.000198226
0.0835624,-2.67691e-05,-0.0267691,-0.176051,-0.000176051
0.09152469,-4.62866e-06,-0.00462866,-0.0304411,-3.04411e-05
0.0995441,1.44441e-06,0.00144441,0.00949938,9.49938e-06
0.107527,1.43596e-05,0.0143596,0.0944383,9.44383e-05
0.115492,4.80135e-05,0.0480135,0.315768,0.000315768
0.123535,4.24178e-05,0.0424178,0.278967,0.000278967
0.13147,2.93169e-05,0.0293169,0.192807,0.000192807
0.1395267,3.35601e-05,0.0335601,0.220713,0.000220713
0.147474,4.72709e-05,0.0472709,0.310884,0.000310884
0.155499,6.01066e-05,0.0601066,0.3953,0.0003953
0.163471,5.7932e-05,0.057932,0.380998,0.000380998
0.171519,4.4672e-05,0.044672,0.293792,0.000293792
0.179468,4.4778e-05,0.044778,0.29449,0.00029449
0.187481,4.69638e-05,0.0469638,0.308864,0.000308864
0.195449,4.64488e-05,0.0464488,0.305478,0.000305478
0.203427,4.31603e-05,0.0431603,0.28385,0.00028385
0.211441,5.76402e-05,0.0576402,0.37908,0.00037908
0.219503,4.32664e-05,0.0432664,0.284548,0.000284548
0.2274203,0.000112324,0.112324,0.738718,0.000738718
0.235479,6.71079e-05,0.0671079,0.441345,0.000441345
0.243387,8.45845e-05,0.0845845,0.556283,0.000556283
0.251401,9.97274e-05,0.0997274,0.655872,0.000655872
0.259412,0.000132692,0.132692,0.872667,0.000872667
0.2673904,0.000146164,0.146164,0.961269,0.000961269
0.275398,0.000133487,0.133487,0.877899,0.000877899
0.283371,0.000154067,0.154067,1.01324,0.00101324
0.2914038,0.00016791,0.16791,1.10429,0.00110429
0.2993778,0.000202917,0.202917,1.33451,0.00133451
0.307346,0.000206948,0.206948,1.36102,0.00136102
0.315355,0.000230763,0.230763,1.51764,0.00151764
0.323356,0.000272054,0.272054,1.78921,0.00178921
0.331345,0.000335967,0.335967,2.20954,0.00220954
0.339314,0.000399987,0.399987,2.63057,0.00263057
0.347333,0.000407359,0.407359,2.67906,0.00267906
0.355263,0.000559239,0.559239,3.67792,0.00367792
0.363328,0.000610529,0.610529,4.01523,0.00401523
0.371291,0.000688975,0.688975,4.53115,0.00453115
0.379309,0.000845549,0.845549,5.56088,0.00556088
0.387271,0.00103233,1.03233,6.78927,0.00678927
0.395236,0.0012385,1.2385,8.14515,0.00814515
0.403261,0.00148418,1.48418,9.76091,0.00976091
0.411245,0.00189346,1.89346,12.4526,0.0124526
0.419225,0.00203059,2.03059,13.3545,0.0133545
0.427204,0.00205271,2.05271,13.5,0.0135
0.435231,0.00224522,2.24522,14.766,0.014766
0.443157,0.00248878,2.48878,16.3678,0.0163678
0.451182,0.00292079,2.92079,19.209,0.019209
0.459079,0.00405087,4.05087,26.6412,0.0266412
0.466957,0.00667713,6.67713,43.9132,0.0439132
0.474549,0.0124589,12.4589,81.9377,0.0819377
0.482321,0.0284414,28.4414,187.049,0.187049
0.4919875,0.00474836,4.74836,31.2283,0.0312283
0.496664,0.0055107,5.5107,36.242,0.036242
0.4963716,-0.00133718,-1.33718,-8.79415,-0.00879415
0.488056,-0.00318337,-3.18337,-20.9359,-0.0209359
0.48036,-0.00797879,-7.97879,-52.4737,-0.0524737
0.47258,-0.0168781,-16.8781,-111.001,-0.111001
0.463974,-0.0138241,-13.8241,-90.9162,-0.0909162
0.4557755,-0.0142409,-14.2409,-93.6574,-0.0936574
0.447765,-0.0072292,-7.2292,-47.5439,-0.0475439
0.439853,-0.00407088,-4.07088,-26.7728,-0.0267728
0.431945,-0.0032293,-3.2293,-21.238,-0.021238
0.423952,-0.00294073,-2.94073,-19.3402,-0.0193402
0.416,-0.00295943,-2.95943,-19.4631,-0.0194631
0.40795,-0.00283983,-2.83983,-18.6765,-0.0186765
0.399949,-0.00255484,-2.55484,-16.8023,-0.0168023
0.391918,-0.00210941,-2.10941,-13.8729,-0.0138729
0.383977,-0.00182536,-1.82536,-12.0048,-0.0120048
0.375986,-0.00160195,-1.60195,-10.5355,-0.0105355
0.368002,-0.0014344,-1.4344,-9.43355,-0.00943355
0.360004,-0.00134325,-1.34325,-8.83409,-0.00883409
0.352035,-0.00127032,-1.27032,-8.35446,-0.00835446
0.3439965,-0.00115247,-1.15247,-7.57937,-0.00757937
0.336003,-0.00107795,-1.07795,-7.08927,-0.00708927
0.328028,-0.00105371,-1.05371,-6.92985,-0.00692985
0.320059,-0.000987061,-0.987061,-6.49156,-0.00649156
0.312061,-0.000962159,-0.962159,-6.32778,-0.00632778
0.304119,-0.0009498,-0.9498,-6.24651,-0.00624651
0.29608,-0.000913733,-0.913733,-6.0093,-0.0060093
0.28806,-0.000929778,-0.929778,-6.11482,-0.00611482
0.280115,-0.000920242,-0.920242,-6.05211,-0.00605211
0.272098,-0.000915775,-0.915775,-6.02273,-0.00602273
0.264088,-0.000898325,-0.898325,-5.90797,-0.00590797
0.2561101,-0.000900314,-0.900314,-5.92105,-0.00592105
0.248113,-0.000897556,-0.897556,-5.90291,-0.00590291
0.240103,-0.000863664,-0.863664,-5.68001,-0.00568001
0.232093,-0.000929911,-0.929911,-6.1157,-0.0061157
0.224105,-0.00091726,-0.91726,-6.0325,-0.0060325
0.2162043,-0.000897344,-0.897344,-5.90152,-0.00590152
0.208139,-0.00091673,-0.91673,-6.02901,-0.00602901
0.20016,-0.000976586,-0.976586,-6.42266,-0.00642266
0.192167,-0.0009607,-0.9607,-6.31819,-0.00631819
0.184195,-0.000953169,-0.953169,-6.26866,-0.00626866
0.176149,-0.00102281,-1.02281,-6.72666,-0.00672666
0.168199,-0.00101525,-1.01525,-6.67696,-0.00667696
0.160189,-0.00101045,-1.01045,-6.64539,-0.00664539
0.15211,-0.00104281,-1.04281,-6.85817,-0.00685817
0.14419,-0.00106179,-1.06179,-6.98305,-0.00698305
0.136207,-0.00110269,-1.10269,-7.25199,-0.00725199
0.128159,-0.00108696,-1.08696,-7.14857,-0.00714857
0.120212,-0.00111491,-1.11491,-7.3324,-0.0073324
0.112218,-0.00117391,-1.17391,-7.7204,-0.0077204
0.1042,-0.00116851,-1.16851,-7.68489,-0.00768489
0.0962401,-0.00118196,-1.18196,-7.77331,-0.00777331
0.0882417,-0.00123712,-1.23712,-8.13609,-0.00813609
0.0802588,-0.00122919,-1.22919,-8.08394,-0.00808394
0.0722575,-0.00126202,-1.26202,-8.29987,-0.00829987
0.0642767,-0.0012831,-1.2831,-8.43852,-0.00843852
0.0562859,-0.0013419,-1.3419,-8.8252,-0.0088252
0.0482305,-0.00133858,-1.33858,-8.8034,-0.0088034
0.0402452,-0.00137232,-1.37232,-9.02525,-0.00902525
0.0322738,-0.00140634,-1.40634,-9.24902,-0.00924902
0.0243017,-0.00145824,-1.45824,-9.59034,-0.00959034
0.0163103,-0.00145816,-1.45816,-9.58982,-0.00958982
0.00825465,-0.00152026,-1.52026,-9.99821,-0.00999821
3.477018E-4,-0.0015426,-1.5426,-10.1452,-0.0101452
-0.00773982,-0.00157326,-1.57326,-10.3468,-0.0103468
-0.0156663,-0.00166409,-1.66409,-10.9441,-0.0109441
-0.0237156,-0.00170729,-1.70729,-11.2283,-0.0112283
-0.03165118,-0.00174516,-1.74516,-11.4773,-0.0114773
-0.0396545,-0.00181581,-1.81581,-11.9419,-0.0119419
-0.0477048,-0.00190094,-1.90094,-12.5018,-0.0125018
-0.0556122,-0.00201527,-2.01527,-13.2537,-0.0132537
-0.063646,-0.00208446,-2.08446,-13.7087,-0.0137087
-0.0716574,-0.00228214,-2.28214,-15.0088,-0.0150088
-0.0795876,-0.0024799,-2.4799,-16.3094,-0.0163094
-0.0876595,-0.00273345,-2.73345,-17.977,-0.017977
-0.0956464,-0.00300979,-3.00979,-19.7944,-0.0197944
-0.103625,-0.00347588,-3.47588,-22.8597,-0.0228597
-0.111585,-0.00399321,-3.99321,-26.2619,-0.0262619
-0.119566,-0.00440496,-4.40496,-28.9699,-0.0289699
-0.127588,-0.00499853,-4.99853,-32.8736,-0.0328736
-0.135556,-0.00571499,-5.71499,-37.5855,-0.0375855
-0.143541,-0.00615275,-6.15275,-40.4645,-0.0404645
-0.151572,-0.00632845,-6.32845,-41.62,-0.04162
-0.159583,-0.00638204,-6.38204,-41.9725,-0.0419725
-0.167591,-0.00576257,-5.76257,-37.8984,-0.0378984
-0.175585,-0.00466989,-4.66989,-30.7122,-0.0307122
-0.18359,-0.00382685,-3.82685,-25.1678,-0.0251678
-0.191606,-0.00330451,-3.30451,-21.7326,-0.0217326
-0.19526,-0.00307569,-3.07569,-20.2278,-0.0202278