File: literature/rawdata/engstfeld_2018_polycrystalline_17743/engstfeld_2018_polycrystalline_17743_f4b_3.csv
E,<I>,I (raw),j,j
V vs. RHE,mA,\g(m)A,\g(m)A/cm\+(-2),mA/cm\+(-2)
-0.1953903,-0.0029511,-2.9511,-19.4084,-0.0194084
-0.196652,-0.000531554,-0.531554,-3.49584,-0.00349584
-0.188143,4.3346e-05,0.043346,0.285071,0.000285071
-0.180281,0.000597852,0.597852,3.93186,0.00393186
-0.172288,0.00116183,1.16183,7.64092,0.00764092
-0.164342,0.00178348,1.78348,11.7293,0.0117293
-0.156298,0.00230786,2.30786,15.178,0.015178
-0.1483157,0.00261255,2.61255,17.1818,0.0171818
-0.140301,0.00278342,2.78342,18.3056,0.0183056
-0.132273,0.00279389,2.79389,18.3744,0.0183744
-0.124349,0.00268418,2.68418,17.6529,0.0176529
-0.116291,0.00253755,2.53755,16.6886,0.0166886
-0.108295,0.00232271,2.32271,15.2757,0.0152757
-0.100317,0.00206634,2.06634,13.5896,0.0135896
-0.0922272,0.0017791,1.7791,11.7005,0.0117005
-0.0843264,0.0015456,1.5456,10.1648,0.0101648
-0.0762941,0.00130514,1.30514,8.58345,0.00858345
-0.06830968,0.00110932,1.10932,7.29559,0.00729559
-0.06031552,0.00094903,0.94903,6.24144,0.00624144
-0.052349,0.000816881,0.816881,5.37234,0.00537234
-0.0443973,0.000691759,0.691759,4.54946,0.00454946
-0.0363479,0.000591302,0.591302,3.88878,0.00388878
-0.0283011,0.000510071,0.510071,3.35456,0.00335456
-0.0203545,0.000464271,0.464271,3.05335,0.00305335
-0.0123629,0.000376967,0.376967,2.47918,0.00247918
-0.004379394,0.000348564,0.348564,2.29239,0.00229239
0.00364595,0.000271577,0.271577,1.78607,0.00178607
0.0115179,0.000225167,0.225167,1.48084,0.00148084
0.01964285,0.00021088,0.21088,1.38688,0.00138688
0.027605,0.000174249,0.174249,1.14597,0.00114597
0.0355693,0.000156666,0.156666,1.03034,0.00103034
0.0435225,0.000120413,0.120413,0.791914,0.000791914
0.0516183,0.000112324,0.112324,0.738718,0.000738718
0.0596391,9.01802e-05,0.0901802,0.593084,0.000593084
0.0675828,8.50619e-05,0.0850619,0.559422,0.000559422
0.0755207,7.71855e-05,0.0771855,0.507622,0.000507622
0.0835494,5.68977e-05,0.0568977,0.374196,0.000374196
0.09154357,6.92295e-05,0.0692295,0.455298,0.000455298
0.09957061,4.12244e-05,0.0412244,0.271118,0.000271118
0.107524,2.73279e-05,0.0273279,0.179726,0.000179726
0.115504,6.84339e-05,0.0684339,0.450066,0.000450066
0.123537,3.82541e-05,0.0382541,0.251584,0.000251584
0.1315001,2.66914e-05,0.0266914,0.17554,0.00017554
0.139525,7.54897e-07,0.000754897,0.00496469,4.96469e-06
0.147497,2.71423e-05,0.0271423,0.178505,0.000178505
0.155509,1.65077e-05,0.0165077,0.108566,0.000108566
0.163499,1.60039e-05,0.0160039,0.105252,0.000105252
0.17153,3.75116e-05,0.0375116,0.2467,0.0002467
0.179517,2.07244e-05,0.0207244,0.136297,0.000136297
0.187423,1.84437e-05,0.0184437,0.121298,0.000121298
0.195505,2.2793e-05,0.022793,0.149901,0.000149901
0.20344,2.86539e-05,0.0286539,0.188447,0.000188447
0.211446,-2.26338e-07,-0.000226338,-0.00148854,-1.48854e-06
0.219421,1.26624e-05,0.0126624,0.0832759,8.32759e-05
0.227427,4.71383e-05,0.0471383,0.310012,0.000310012
0.235487,3.24197e-05,0.0324197,0.213213,0.000213213
0.243399,2.16792e-05,0.0216792,0.142576,0.000142576
0.251397,6.09817e-05,0.0609817,0.401056,0.000401056
0.259404,4.09061e-05,0.0409061,0.269025,0.000269025
0.267396,7.10593e-05,0.0710593,0.467332,0.000467332
0.275433,7.59655e-05,0.0759655,0.499599,0.000499599
0.283391,8.95172e-05,0.0895172,0.588724,0.000588724
0.291399,0.000108548,0.108548,0.713883,0.000713883
0.299397,0.000117337,0.117337,0.771682,0.000771682
0.307373,0.000110176,0.110176,0.724591,0.000724591
0.315421,0.00015237,0.15237,1.00208,0.00100208
0.323363,0.000182178,0.182178,1.19812,0.00119812
0.331352,0.000236411,0.236411,1.55479,0.00155479
0.339331,0.000257256,0.257256,1.69188,0.00169188
0.347266,0.000322044,0.322044,2.11797,0.00211797
0.355372,0.000358218,0.358218,2.35587,0.00235587
0.363332,0.000480422,0.480422,3.15957,0.00315957
0.3713001,0.000577962,0.577962,3.80105,0.00380105
0.37932,0.000695366,0.695366,4.57318,0.00457318
0.387288,0.000787841,0.787841,5.18136,0.00518136
0.395287,0.000954217,0.954217,6.27555,0.00627555
0.403252,0.00118174,1.18174,7.77191,0.00777191
0.411229,0.00134484,1.34484,8.84454,0.00884454
0.4192363,0.00149046,1.49046,9.80224,0.00980224
0.427238,0.00159137,1.59137,10.4659,0.0104659
0.435235,0.00173824,1.73824,11.4318,0.0114318
0.443233,0.00194422,1.94422,12.7864,0.0127864
0.451226,0.00234475,2.34475,15.4206,0.0154206
0.459133,0.00317061,3.17061,20.852,0.020852
0.46707,0.00509211,5.09211,33.489,0.033489
0.47454,0.0113193,11.3193,74.4432,0.0744432
0.4834677,0.0166229,16.6229,109.323,0.109323
0.491465,0.00651053,6.51053,42.8175,0.0428175
0.496673,0.00469206,4.69206,30.858,0.030858
0.4963364,-0.000717379,-0.717379,-4.71795,-0.00471795
0.487934,-0.00204354,-2.04354,-13.4396,-0.0134396
0.480162,-0.00420221,-4.20221,-27.6365,-0.0276365
0.472411,-0.00964398,-9.64398,-63.4251,-0.0634251
0.464084,-0.0116623,-11.6623,-76.6987,-0.0766987
0.456016,-0.011176,-11.176,-73.5009,-0.0735009
0.447843,-0.00639162,-6.39162,-42.0354,-0.0420354
0.439929,-0.00384965,-3.84965,-25.3178,-0.0253178
0.431987,-0.00290812,-2.90812,-19.1257,-0.0191257
0.423978,-0.00248509,-2.48509,-16.3436,-0.0163436
0.416022,-0.00232627,-2.32627,-15.299,-0.015299
0.408018,-0.00226811,-2.26811,-14.9166,-0.0149166
0.39999,-0.00209225,-2.09225,-13.76,-0.01376
0.391988,-0.00177444,-1.77444,-11.6699,-0.0116699
0.383999,-0.00156241,-1.56241,-10.2754,-0.0102754
0.376053,-0.00140772,-1.40772,-9.25809,-0.00925809
0.368007,-0.00130665,-1.30665,-8.5934,-0.0085934
0.359999,-0.00119744,-1.19744,-7.87517,-0.00787517
0.352039,-0.00110367,-1.10367,-7.25845,-0.00725845
0.344022,-0.00101645,-1.01645,-6.68481,-0.00668481
0.3360728,-0.000963352,-0.963352,-6.33563,-0.00633563
0.328084,-0.000962875,-0.962875,-6.33249,-0.00633249
0.320032,-0.000929486,-0.929486,-6.11291,-0.00611291
0.312083,-0.000907607,-0.907607,-5.96902,-0.00596902
0.3041,-0.000906838,-0.906838,-5.96396,-0.00596396
0.296108,-0.000920549,-0.920549,-6.05413,-0.00605413
0.288069,-0.000874775,-0.874775,-5.75309,-0.00575309
0.280125,-0.000899837,-0.899837,-5.91791,-0.00591791
0.272175,-0.000926808,-0.926808,-6.09529,-0.00609529
0.264083,-0.000897291,-0.897291,-5.90117,-0.00590117
0.256163,-0.000872627,-0.872627,-5.73897,-0.00573897
0.248136,-0.000901508,-0.901508,-5.9289,-0.0059289
0.240127,-0.000874404,-0.874404,-5.75065,-0.00575065
0.232091,-0.000916438,-0.916438,-6.02709,-0.00602709
0.224136,-0.000921398,-0.921398,-6.05971,-0.00605971
0.216203,-0.000904816,-0.904816,-5.95066,-0.00595066
0.208144,-0.000894135,-0.894135,-5.88041,-0.00588041
0.200137,-0.000943091,-0.943091,-6.20238,-0.00620238
0.1921809,-0.000921557,-0.921557,-6.06076,-0.00606076
0.184221,-0.000955396,-0.955396,-6.28331,-0.00628331
0.176216,-0.000975551,-0.975551,-6.41586,-0.00641586
0.168199,-0.0009777,-0.9777,-6.42999,-0.00642999
0.160249,-0.000976135,-0.976135,-6.4197,-0.0064197
0.152203,-0.00100271,-1.00271,-6.59446,-0.00659446
0.144225,-0.00101578,-1.01578,-6.68045,-0.00668045
0.136204,-0.00102143,-1.02143,-6.71759,-0.00671759
0.1282029,-0.000999711,-0.999711,-6.57475,-0.00657475
0.120284,-0.00102329,-1.02329,-6.7298,-0.0067298
0.112217,-0.00104474,-1.04474,-6.8709,-0.0068709
0.104211,-0.00105421,-1.05421,-6.93317,-0.00693317
0.0962342,-0.00109492,-1.09492,-7.20089,-0.00720089
0.0882173,-0.00109656,-1.09656,-7.21171,-0.00721171
0.0802539,-0.00110876,-1.10876,-7.29194,-0.00729194
0.0722961,-0.00113955,-1.13955,-7.49443,-0.00749443
0.064283,-0.00110173,-1.10173,-7.24572,-0.00724572
0.0563254,-0.00112104,-1.12104,-7.37269,-0.00737269
0.048347,-0.00117191,-1.17191,-7.70721,-0.00770721
0.0402505,-0.00118174,-1.18174,-7.77192,-0.00777192
0.0322833,-0.00121943,-1.21943,-8.01976,-0.00801976
0.02428876,-0.00122465,-1.22465,-8.05412,-0.00805412
0.0163029,-0.00123009,-1.23009,-8.08987,-0.00808987
0.00830768,-0.00125462,-1.25462,-8.2512,-0.0082512
0.000319689,-0.00130843,-1.30843,-8.60509,-0.00860509
-0.00768783,-0.00134023,-1.34023,-8.81421,-0.00881421
-0.0156875,-0.00138136,-1.38136,-9.08472,-0.00908472
-0.02366,-0.00141615,-1.41615,-9.31355,-0.00931355
-0.0316915,-0.00143268,-1.43268,-9.42221,-0.00942221
-0.0396303,-0.00152478,-1.52478,-10.0279,-0.0100279
-0.0477375,-0.00159702,-1.59702,-10.503,-0.010503
-0.0556766,-0.00166061,-1.66061,-10.9213,-0.0109213
-0.06363754,-0.00179573,-1.79573,-11.8099,-0.0118099
-0.07163658,-0.00187662,-1.87662,-12.3419,-0.0123419
-0.0795974,-0.00199463,-1.99463,-13.118,-0.013118
-0.08762572,-0.00217115,-2.17115,-14.2789,-0.0142789
-0.0955486,-0.0023652,-2.3652,-15.5551,-0.0155551
-0.103605,-0.00262305,-2.62305,-17.2509,-0.0172509
-0.111604,-0.00292904,-2.92904,-19.2633,-0.0192633
-0.119583,-0.0032781,-3.2781,-21.5589,-0.0215589
-0.127557,-0.00375431,-3.75431,-24.6908,-0.0246908
-0.135543,-0.00427594,-4.27594,-28.1213,-0.0281213
-0.143493,-0.00483166,-4.83166,-31.7762,-0.0317762
-0.151564,-0.00532249,-5.32249,-35.0042,-0.0350042
-0.15958,-0.00554353,-5.54353,-36.4579,-0.0364579
-0.167572,-0.00529147,-5.29147,-34.8001,-0.0348001
-0.175606,-0.00466437,-4.66437,-30.676,-0.030676
-0.1835447,-0.00385406,-3.85406,-25.3468,-0.0253468
-0.191645,-0.00317209,-3.17209,-20.8618,-0.0208618
-0.195207,-0.00293822,-2.93822,-19.3236,-0.0193236