File: literature/rawdata/engstfeld_2018_polycrystalline_17743/engstfeld_2018_polycrystalline_17743_f4b_4.mpt
EC-Lab ASCII FILE
Nb header lines : 3
mode	ox/red	error	control changes	Ns changes	counter inc.	time/s	control/V	Ewe/V	<I>/mA	cycle number	(Q-Qo)/C	P/W
2	1	0	1	0	0	268.351	-0.199945	-0.195302	-0.0042395	11	-0.0014379	8.27984e-07
2	1	0	1	0	0	268.562	-0.1894	-0.193218	-0.00117702	11	-0.00143843	2.27423e-07
2	1	0	0	0	0	268.781	-0.178406	-0.182201	-0.000191568	11	-0.00143858	3.49039e-08
2	1	0	0	0	0	269.001	-0.167411	-0.171296	0.000921502	11	-0.00143849	1.57849e-07
2	1	0	1	0	0	269.221	-0.156416	-0.160207	0.00202829	11	-0.00143814	3.24946e-07
2	1	0	1	0	0	269.441	-0.145421	-0.149243	0.00272083	11	-0.00143762	4.06064e-07
2	1	0	0	0	0	269.661	-0.134427	-0.13825	0.00277469	11	-0.001437	3.83601e-07
2	1	0	0	0	0	269.881	-0.123432	-0.12726	0.0027809	11	-0.00143639	3.53896e-07
2	1	0	1	0	0	270.101	-0.112437	-0.116285	0.00239601	11	-0.00143583	2.78621e-07
2	1	0	1	0	0	270.321	-0.101445	-0.10528	0.00195304	11	-0.00143535	2.05616e-07
2	1	0	0	0	0	270.541	-0.0904478	-0.0942696	0.0015165	11	-0.00143496	1.4296e-07
2	1	0	1	0	0	270.76	-0.079453	-0.0833313	0.00119503	11	-0.00143467	9.95833e-08
2	1	0	1	0	0	270.98	-0.0684583	-0.0722785	0.000763575	11	-0.00143446	5.51901e-08
2	1	0	0	0	0	271.2	-0.0574635	-0.0613412	0.000603527	11	-0.00143431	3.70211e-08
2	1	0	0	0	0	271.42	-0.0464688	-0.0503308	0.000383995	11	-0.00143421	1.93268e-08
2	1	0	1	0	0	271.64	-0.0354741	-0.0393376	0.000222462	11	-0.00143415	8.75112e-09
2	1	0	1	0	0	271.86	-0.0244793	-0.0283553	8.69978e-05	11	-0.00143412	2.46685e-09
2	1	0	0	0	0	272.08	-0.0134846	-0.0173413	5.87275e-05	11	-0.0014341	1.01841e-09
2	1	0	0	0	0	272.3	-0.00248982	-0.00640308	1.84172e-05	11	-0.00143409	1.17927e-10
2	1	0	1	0	0	272.52	0.00850492	0.00462002	-3.00348e-05	11	-0.00143409	1.38761e-10
2	1	0	1	0	0	272.74	0.0194997	0.0156085	-5.45393e-05	11	-0.0014341	8.51277e-10
2	1	0	0	0	0	272.959	0.0304944	0.0265938	-2.93983e-05	11	-0.00143412	7.81814e-10
2	1	0	0	0	0	273.179	0.0414891	0.037618	-4.8864e-05	11	-0.00143413	1.83816e-09
2	1	0	1	0	0	273.399	0.0524839	0.0485887	-2.37761e-05	11	-0.00143413	1.15525e-09
2	1	0	1	0	0	273.619	0.0634786	0.0596024	-7.81105e-06	11	-0.00143414	4.65558e-10
2	1	0	0	0	0	273.839	0.0744733	0.0705854	-6.69723e-06	11	-0.00143414	4.72727e-10
2	1	0	0	0	0	274.059	0.0854681	0.0815389	-3.00613e-05	11	-0.00143415	2.45117e-09
2	1	0	1	0	0	274.279	0.0964628	0.0925308	1.22646e-05	11	-0.00143415	1.13485e-09
2	1	0	1	0	0	274.499	0.107453	0.103527	2.10005e-06	11	-0.00143415	2.17413e-10
2	1	0	0	0	0	274.719	0.118452	0.114496	4.90743e-05	11	-0.00143415	5.61882e-09
2	1	0	1	0	0	274.938	0.129447	0.125513	4.44068e-05	11	-0.00143414	5.57365e-09
2	1	0	1	0	0	275.158	0.140442	0.136479	4.64488e-05	11	-0.00143413	6.33927e-09
2	1	0	0	0	0	275.378	0.151437	0.147474	4.72709e-05	11	-0.00143412	6.97121e-09
2	1	0	0	0	0	275.598	0.162431	0.158502	5.29727e-05	11	-0.00143411	8.3963e-09
2	1	0	1	0	0	275.818	0.173426	0.169519	3.55226e-05	11	-0.0014341	6.02176e-09
2	1	0	1	0	0	276.038	0.184421	0.180455	3.77768e-05	11	-0.00143409	6.81701e-09
2	1	0	0	0	0	276.258	0.195415	0.191473	4.3346e-05	11	-0.00143408	8.29957e-09
2	1	0	0	0	0	276.478	0.20641	0.202439	3.76442e-05	11	-0.00143407	7.62063e-09
2	1	0	1	0	0	276.698	0.217405	0.213457	7.28892e-05	11	-0.00143406	1.55587e-08
2	1	0	1	0	0	276.918	0.2284	0.22443	4.23117e-05	11	-0.00143405	9.496e-09
2	1	0	0	0	0	277.137	0.239394	0.235479	6.71079e-05	11	-0.00143402	1.58025e-08
2	1	0	0	0	0	277.357	0.250389	0.246399	8.29668e-05	11	-0.00143401	2.04429e-08
2	1	0	1	0	0	277.577	0.261384	0.257457	0.000103361	11	-0.00143399	2.66109e-08
2	1	0	1	0	0	277.797	0.272379	0.268387	0.000141311	11	-0.00143396	3.7926e-08
2	1	0	0	0	0	278.017	0.283373	0.27937	0.000138659	11	-0.00143393	3.87371e-08
2	1	0	0	0	0	278.237	0.294368	0.290388	0.00019215	11	-0.00143389	5.5798e-08
2	1	0	1	0	0	278.457	0.305363	0.301367	0.000209865	11	-0.00143385	6.32464e-08
2	1	0	1	0	0	278.677	0.316358	0.312329	0.000209706	11	-0.0014338	6.54973e-08
2	1	0	0	0	0	278.897	0.327352	0.323356	0.000272054	11	-0.00143375	8.79703e-08
2	1	0	1	0	0	279.116	0.338347	0.33434	0.000335456	11	-0.00143368	1.12156e-07
2	1	0	1	0	0	279.336	0.349342	0.345309	0.000415448	11	-0.0014336	1.43458e-07
2	1	0	0	0	0	279.556	0.360337	0.356253	0.000549108	11	-0.00143349	1.95621e-07
2	1	0	0	0	0	279.776	0.371331	0.367321	0.000652748	11	-0.00143336	2.39768e-07
2	1	0	1	0	0	279.996	0.382326	0.378302	0.000844196	11	-0.0014332	3.19361e-07
2	1	0	1	0	0	280.216	0.393321	0.38928	0.00106863	11	-0.00143299	4.15998e-07
2	1	0	0	0	0	280.436	0.404315	0.400265	0.00145744	11	-0.00143272	5.83363e-07
2	1	0	0	0	0	280.656	0.41531	0.411245	0.00189346	11	-0.00143236	7.78676e-07
2	1	0	1	0	0	280.876	0.426305	0.422234	0.00212744	11	-0.00143193	8.9828e-07
2	1	0	1	0	0	281.096	0.4373	0.433225	0.00223885	11	-0.00143147	9.69929e-07
2	1	0	0	0	0	281.315	0.448294	0.444155	0.00253771	11	-0.00143096	1.12714e-06
2	1	0	0	0	0	281.535	0.459289	0.455147	0.00348903	11	-0.00143032	1.58802e-06
2	1	0	1	0	0	281.755	0.470284	0.465955	0.00623308	11	-0.00142933	2.90433e-06
2	1	0	1	0	0	281.975	0.481279	0.476284	0.0158165	11	-0.0014272	7.53313e-06
2	1	0	0	0	0	282.195	0.492273	0.48986	0.0154734	11	-0.00142202	7.57981e-06
2	0	0	0	0	0	282.362	0.49937	0.496664	0.0055107	11	-0.00142094	2.73697e-06
2	0	0	0	0	0	282.582	0.488375	0.493011	-0.00201455	11	-0.00142066	9.93197e-07
2	0	0	1	0	0	282.802	0.477381	0.48227	-0.00646651	11	-0.00142148	3.11861e-06
2	0	0	1	0	0	283.022	0.466386	0.47146	-0.0175447	11	-0.00142409	8.27163e-06
2	0	0	0	0	0	283.241	0.455391	0.460243	-0.0154858	11	-0.00142749	7.12722e-06
2	0	0	0	0	0	283.461	0.444396	0.448772	-0.00772412	11	-0.00143018	3.46637e-06
2	0	0	1	0	0	283.681	0.433402	0.437875	-0.00378529	11	-0.00143135	1.65749e-06
2	0	0	1	0	0	283.901	0.422407	0.426929	-0.00309792	11	-0.00143208	1.32259e-06
2	0	0	0	0	0	284.121	0.411412	0.416	-0.00295943	11	-0.00143273	1.23112e-06
2	0	0	0	0	0	284.341	0.400415	0.404988	-0.00286754	11	-0.00143336	1.16132e-06
2	0	0	1	0	0	284.561	0.389423	0.393924	-0.00223549	11	-0.00143392	8.80612e-07
2	0	0	0	0	0	284.781	0.378428	0.382963	-0.00180608	11	-0.00143435	6.91662e-07
2	0	0	0	0	0	285.001	0.367433	0.372018	-0.00153059	11	-0.00143472	5.69406e-07
2	0	0	1	0	0	285.22	0.356438	0.361014	-0.00134794	11	-0.00143503	4.86628e-07
2	0	0	1	0	0	285.44	0.345444	0.350032	-0.00124709	11	-0.00143531	4.36521e-07
2	0	0	0	0	0	285.66	0.334449	0.339019	-0.00107402	11	-0.00143557	3.64113e-07
2	0	0	0	0	0	285.88	0.323454	0.328028	-0.00105371	11	-0.0014358	3.45645e-07
2	0	0	1	0	0	286.1	0.312459	0.317061	-0.000990005	11	-0.00143602	3.13892e-07
2	0	0	1	0	0	286.32	0.301465	0.306102	-0.000935904	11	-0.00143623	2.86483e-07
2	0	0	0	0	0	286.54	0.29047	0.295092	-0.000924368	11	-0.00143644	2.72774e-07
2	0	0	0	0	0	286.76	0.279475	0.284104	-0.000924156	11	-0.00143664	2.62556e-07
2	0	0	1	0	0	286.98	0.268481	0.27309	-0.00091978	11	-0.00143685	2.51183e-07
2	0	0	1	0	0	287.2	0.257486	0.26214	-0.000906122	11	-0.00143705	2.37531e-07
2	0	0	0	0	0	287.419	0.246491	0.25106	-0.000882228	11	-0.00143724	2.21492e-07
2	0	0	0	0	0	287.639	0.235496	0.240103	-0.000863664	11	-0.00143744	2.07369e-07
2	0	0	1	0	0	287.859	0.224502	0.229086	-0.000917976	11	-0.00143764	2.10296e-07
2	0	0	1	0	0	288.079	0.213507	0.218183	-0.000907766	11	-0.00143784	1.9806e-07
2	0	0	0	0	0	288.299	0.202512	0.207124	-0.000923281	11	-0.00143804	1.91234e-07
2	0	0	0	0	0	288.519	0.191516	0.196166	-0.000936148	11	-0.00143825	1.83641e-07
2	0	0	1	0	0	288.739	0.180523	0.185162	-0.000954017	11	-0.00143846	1.76647e-07
2	0	0	0	0	0	288.959	0.169528	0.174132	-0.000988997	11	-0.00143868	1.72216e-07
2	0	0	0	0	0	289.179	0.158533	0.163125	-0.00100992	11	-0.0014389	1.64743e-07
2	0	0	1	0	0	289.398	0.147538	0.15211	-0.00104281	11	-0.00143913	1.58622e-07
2	0	0	1	0	0	289.618	0.136544	0.141179	-0.00107718	11	-0.00143936	1.52075e-07
2	0	0	0	0	0	289.838	0.125549	0.130194	-0.0010911	11	-0.0014396	1.42054e-07
2	0	0	0	0	0	290.058	0.114554	0.119229	-0.00110274	11	-0.00143984	1.31478e-07
2	0	0	1	0	0	290.278	0.103559	0.108204	-0.00117485	11	-0.00144009	1.27123e-07
2	0	0	1	0	0	290.498	0.0925647	0.0972509	-0.0011779	11	-0.00144035	1.14552e-07
2	0	0	0	0	0	290.718	0.0815699	0.0862236	-0.00122784	11	-0.00144062	1.05868e-07
2	0	0	0	0	0	290.938	0.0705752	0.0752629	-0.00128581	11	-0.00144089	9.67736e-08
2	0	0	1	0	0	291.158	0.0595805	0.0642767	-0.0012831	11	-0.00144117	8.24736e-08
2	0	0	1	0	0	291.378	0.0485857	0.0532852	-0.00135537	11	-0.00144146	7.22212e-08
2	0	0	0	0	0	291.597	0.037591	0.0422551	-0.00137142	11	-0.00144176	5.79493e-08
2	0	0	0	0	0	291.817	0.0265963	0.0312626	-0.00141276	11	-0.00144206	4.41665e-08
2	0	0	1	0	0	292.037	0.0156015	0.0202889	-0.00147147	11	-0.00144238	2.98546e-08
2	0	0	1	0	0	292.257	0.00460678	0.00925819	-0.00152491	11	-0.00144271	1.41179e-08
2	0	0	0	0	0	292.477	-0.00638796	-0.00167238	-0.00157835	11	-0.00144304	2.63959e-09
2	0	0	0	0	0	292.697	-0.0173816	-0.0126711	-0.0016051	11	-0.00144339	2.03384e-08
2	0	0	1	0	0	292.917	-0.0283774	-0.0237156	-0.00170729	11	-0.00144375	4.04894e-08
2	0	0	0	0	0	293.137	-0.0393722	-0.0346313	-0.00176606	11	-0.00144413	6.11609e-08
2	0	0	0	0	0	293.357	-0.0503669	-0.0456879	-0.00187898	11	-0.00144453	8.58468e-08
2	0	0	1	0	0	293.576	-0.0613617	-0.0566124	-0.0020434	11	-0.00144496	1.15682e-07
2	0	0	1	0	0	293.796	-0.0723564	-0.0676715	-0.00220369	11	-0.00144542	1.49127e-07
2	0	0	0	0	0	294.016	-0.0833512	-0.0785964	-0.00244744	11	-0.00144593	1.9236e-07
2	0	0	0	0	0	294.236	-0.0943459	-0.0896227	-0.00282532	11	-0.00144651	2.53213e-07
2	0	0	1	0	0	294.456	-0.105341	-0.100594	-0.00332779	11	-0.00144717	3.34756e-07
2	0	0	1	0	0	294.676	-0.116335	-0.111585	-0.00399321	11	-0.00144797	4.45583e-07
2	0	0	0	0	0	294.896	-0.12733	-0.122538	-0.00471527	11	-0.00144891	5.778e-07
2	0	0	0	0	0	295.116	-0.138325	-0.133546	-0.00549795	11	-0.00145003	7.34228e-07
2	0	0	1	0	0	295.336	-0.14932	-0.144533	-0.00624085	11	-0.00145132	9.0201e-07
2	0	0	1	0	0	295.556	-0.160314	-0.155542	-0.00651706	11	-0.00145271	1.01368e-06
2	0	0	0	0	0	295.775	-0.171309	-0.166581	-0.00585226	11	-0.00145408	9.74878e-07
2	0	0	0	0	0	295.995	-0.182304	-0.177607	-0.00448791	11	-0.00145521	7.97084e-07
2	0	0	1	0	0	296.215	-0.193299	-0.188605	-0.00350704	11	-0.00145608	6.61446e-07
2	0	0	0	0	0	296.348	-0.200045	-0.19526	-0.00307569	11	-0.00145651	6.00561e-07